#scan	iMeasureCycle=1	iMux=0	time=0.038	N=222	LocalTime=22/06/2023 07:02:51
#VGate(V)	IGate(A)	time(s)	VDrain(V)	IDrain(A)	time(s)
-12.00049	-3.1372E-09	0.063835	0.1000071	6.54137E-05	0.063835
-11.80049	-3.0314E-09	0.088708	0.1000066	6.5984E-05	0.088708
-11.60052	-1.2782E-09	0.113281	0.1000063	6.65513E-05	0.113281
-11.4005	-5.015E-10	0.137813	0.1000067	6.7117E-05	0.137813
-11.2005	-3.312E-10	0.162325	0.1000063	6.76794E-05	0.162325
-11.00049	-1.969E-10	0.18693	0.1000071	6.82404E-05	0.18693
-10.80049	-1.611E-10	0.211453	0.1000063	6.87989E-05	0.211453
-10.60052	-1.077E-10	0.235968	0.1000062	6.93536E-05	0.235968
-10.40051	-7.74E-11	0.260485	0.1000062	6.99085E-05	0.260485
-10.20049	-1.77E-11	0.285029	0.1000069	7.04584E-05	0.285029
-10.0005	-1.42E-11	0.309544	0.100006	7.10075E-05	0.309544
-9.80048	-2.91E-11	0.334102	0.1000062	7.15551E-05	0.334102
-9.60048	1.35E-11	0.358617	0.1000053	7.21009E-05	0.358617
-9.4005	5.73E-11	0.383181	0.1000066	7.26447E-05	0.383181
-9.2005	3.92E-11	0.407728	0.1000052	7.31851E-05	0.407728
-9.00049	4.6E-11	0.432308	0.1000057	7.37194E-05	0.432308
-8.80048	7.13E-11	0.456823	0.1000068	7.42545E-05	0.456823
-8.60052	8.47E-11	0.481343	0.1000055	7.47823E-05	0.481343
-8.4005	1.033E-10	0.50587	0.1000055	7.53094E-05	0.50587
-8.20049	8.76E-11	0.530485	0.100005	7.58357E-05	0.530485
-8.0005	8.94E-11	0.555006	0.1000057	7.63605E-05	0.555006
-7.80048	1.214E-10	0.579522	0.1000056	7.68805E-05	0.579522
-7.60049	8.55E-11	0.627303	0.1000058	7.73991E-05	0.627303
-7.4005	1.014E-10	0.651848	0.1000049	7.79177E-05	0.651848
-7.2005	9.53E-11	0.67638	0.1000053	7.8436E-05	0.67638
-7.00049	1.494E-10	0.7009	0.1000053	7.89512E-05	0.7009
-6.8005	1.527E-10	0.72549	0.1000051	7.94653E-05	0.72549
-6.60051	1.287E-10	0.750002	0.1000052	7.99762E-05	0.750002
-6.4005	1.302E-10	0.774603	0.100005	8.04868E-05	0.774603
-6.20051	1.747E-10	0.799136	0.1000049	8.09959E-05	0.799136
-6.00051	1.764E-10	0.823675	0.1000048	8.15015E-05	0.823675
-5.80048	1.588E-10	0.848204	0.1000051	8.20068E-05	0.848204
-5.60051	1.679E-10	0.872725	0.1000048	8.25104E-05	0.872725
-5.4005	1.84E-10	0.897237	0.1000051	8.30123E-05	0.897237
-5.20051	1.883E-10	0.921768	0.1000045	8.35124E-05	0.921768
-5.0005	1.958E-10	0.94628	0.1000046	8.40115E-05	0.94628
-4.80048	2.038E-10	0.970798	0.1000048	8.45087E-05	0.970798
-4.60049	1.791E-10	0.995317	0.1000051	8.50043E-05	0.995317
-4.4005	2.087E-10	1.019838	0.1000043	8.55E-05	1.019838
-4.20051	2.397E-10	1.044447	0.1000049	8.59938E-05	1.044447
-4.00049	2.121E-10	1.06896	0.1000044	8.64871E-05	1.06896
-3.80051	1.514E-10	1.128821	0.1000044	8.69749E-05	1.128821
-3.60048	1.863E-10	1.153332	0.1000042	8.74648E-05	1.153332
-3.40051	3.697E-10	1.177872	0.1000056	8.79552E-05	1.177872
-3.20051	2.364E-10	1.202383	0.1000044	8.84437E-05	1.202383
-3.00048	2.392E-10	1.226957	0.1000049	8.89319E-05	1.226957
-2.80051	2.357E-10	1.251471	0.1000042	8.94179E-05	1.251471
-2.6005	2.323E-10	1.275995	0.1000045	8.9903E-05	1.275995
-2.40048	2.546E-10	1.300472	0.1000051	9.03883E-05	1.300472
-2.20051	2.784E-10	1.325006	0.1000041	9.08702E-05	1.325006
-2.0005	2.511E-10	1.349549	0.1000045	9.13543E-05	1.349549
-1.8005	2.401E-10	1.374169	0.1000046	9.18372E-05	1.374169
-1.60049	2.743E-10	1.398696	0.1000053	9.23243E-05	1.398696
-1.40052	1.947E-10	1.423241	0.1000037	9.28126E-05	1.423241
-1.20053	2.547E-10	1.44776	0.1000046	9.33093E-05	1.44776
-1.00051	2.428E-10	1.472341	0.100004	9.38145E-05	1.472341
-0.80053	2.873E-10	1.49688	0.1000031	9.43282E-05	1.49688
-0.6005	2.852E-10	1.521403	0.1000041	9.48554E-05	1.521403
-0.40052	2.755E-10	1.546027	0.1000034	9.53884E-05	1.546027
-0.20051	2.886E-10	1.570541	0.1000038	9.59269E-05	1.570541
-0.0005	2.344E-10	1.630331	0.1000038	9.64652E-05	1.630331
0.19948	2.455E-10	1.654845	0.1000041	9.70152E-05	1.654845
0.39951	2.873E-10	1.67937	0.1000035	9.75679E-05	1.67937
0.59949	3.276E-10	1.703886	0.1000041	9.81206E-05	1.703886
0.79948	2.874E-10	1.728466	0.1000031	9.86754E-05	1.728466
0.99948	2.712E-10	1.752983	0.1000032	9.92312E-05	1.752983
1.19949	3.196E-10	1.777512	0.1000039	9.97902E-05	1.777512
1.39949	3.23E-10	1.802175	0.1000038	0.0001003501	1.802175
1.5995	3.13E-10	1.826702	0.1000034	0.0001009101	1.826702
1.7995	3.143E-10	1.851233	0.1000028	0.0001014747	1.851233
1.99948	3.216E-10	1.875764	0.1000039	0.0001020404	1.875764
2.19949	3.411E-10	1.900292	0.1000037	0.0001026047	1.900292
2.39949	3.446E-10	1.924812	0.1000036	0.0001031731	1.924812
2.59949	3.337E-10	1.949326	0.1000028	0.0001037405	1.949326
2.79949	3.222E-10	1.973836	0.1000032	0.0001043088	1.973836
2.99949	3.381E-10	2.003397	0.1000001	0.000104952	2.003397
3.19947	3.416E-10	2.027907	0.1	0.00010552	2.027907
3.39949	3.191E-10	2.052415	0.1	0.000106088	2.052415
3.59949	3.537E-10	2.076924	0.1	0.000106655	2.076924
3.7995	2.712E-10	2.134879	0.0999997	0.000107215	2.134879
3.99949	3.446E-10	2.159391	0.0999999	0.000107782	2.159391
4.19946	3.708E-10	2.18392	0.0999999	0.000108349	2.18392
4.3995	3.414E-10	2.208435	0.1	0.00010891	2.208435
4.5995	3.267E-10	2.233027	0.1	0.00010947	2.233027
4.79947	3.681E-10	2.257538	0.1000001	0.000110027	2.257538
4.99947	3.763E-10	2.282065	0.0999999	0.000110584	2.282065
5.1995	3.604E-10	2.306578	0.1	0.000111137	2.306578
5.39949	3.626E-10	2.331106	0.1	0.000111684	2.331106
5.59949	3.821E-10	2.35564	0.1	0.000112233	2.35564
5.79949	3.798E-10	2.380163	0.0999999	0.000112776	2.380163
5.99949	3.787E-10	2.404681	0.1000001	0.000113317	2.404681
6.19947	3.9E-10	2.429208	0.1000001	0.000113857	2.429208
6.3995	3.668E-10	2.45371	0.1	0.000114393	2.45371
6.59948	3.866E-10	2.47829	0.1	0.000114926	2.47829
6.7995	4.189E-10	2.502801	0.1000001	0.000115452	2.502801
6.99948	3.966E-10	2.527505	0.1	0.000115979	2.527505
7.19948	3.827E-10	2.552032	0.1	0.000116501	2.552032
7.39949	5.262E-10	2.576543	0.1	0.00011702	2.576543
7.59948	3.637E-10	2.629173	0.1000001	0.000117534	2.629173
7.79951	3.758E-10	2.653712	0.1	0.000118049	2.653712
7.99947	4.012E-10	2.678218	0.1	0.000118561	2.678218
8.19949	4.352E-10	2.702728	0.0999998	0.000119069	2.702728
8.3995	4.088E-10	2.727307	0.1000001	0.000119575	2.727307
8.59951	3.954E-10	2.751807	0.0999999	0.000120075	2.751807
8.7995	4.12E-10	2.776304	0.0999998	0.000120576	2.776304
8.99949	4.232E-10	2.800815	0.0999998	0.000121071	2.800815
9.19948	1.718E-10	2.825389	0.1	0.000121565	2.825389
9.39948	3.903E-10	2.849933	0.0999999	0.00012206	2.849933
9.59948	3.91E-10	2.874461	0.0999999	0.000122552	2.874461
9.7995	4.425E-10	2.898979	0.1000001	0.000123047	2.898979
9.99948	4.397E-10	2.92352	0.1000001	0.000123534	2.92352
9.9995	3.549E-10	2.946863	0.0999999	0.000123532	2.946863
9.79952	2.803E-10	2.97136	0.1000001	0.000123046	2.97136
9.5995	2.358E-10	2.995866	0.0999997	0.000122558	2.995866
9.39952	2.158E-10	3.020386	0.0999998	0.000122068	3.020386
9.19949	1.988E-10	3.044953	0.1	0.000121574	3.044953
8.99948	1.641E-10	3.069487	0.0999999	0.00012108	3.069487
8.79948	1.395E-10	3.094124	0.1000001	0.000120578	3.094124
8.5995	1.752E-10	3.135693	0.1	0.000120066	3.135693
8.39948	1.469E-10	3.160261	0.1	0.000119556	3.160261
8.19949	1.133E-10	3.184792	0.1000001	0.000119043	3.184792
7.99948	8.62E-11	3.209417	0.1	0.000118524	3.209417
7.7995	7.88E-11	3.233994	0.1000001	0.000118003	3.233994
7.59948	7.61E-11	3.258505	0.1000001	0.000117481	3.258505
7.3995	7.68E-11	3.283016	0.1000001	0.000116957	3.283016
7.19948	5.98E-11	3.307536	0.1	0.000116431	3.307536
6.99948	1.48E-11	3.332076	0.1	0.0001159	3.332076
6.79948	3.04E-11	3.356605	0.0999999	0.000115368	3.356605
6.59951	3.67E-11	3.381152	0.1000001	0.000114832	3.381152
6.3995	2.36E-11	3.40566	0.1	0.000114292	3.40566
6.1995	2.6E-12	3.430206	0.1	0.000113752	3.430206
5.99949	-1.41E-11	3.454773	0.1000002	0.000113208	3.454773
5.79949	1.15E-11	3.479341	0.0999999	0.000112661	3.479341
5.59952	1.21E-11	3.50386	0.0999999	0.000112113	3.50386
5.39949	-3.63E-11	3.528394	0.1	0.00011156	3.528394
5.19949	-4.52E-11	3.553004	0.1000001	0.000111003	3.553004
4.9995	-1.3E-11	3.577516	0.1000001	0.000110444	3.577516
4.7995	-1.7E-12	3.632403	0.0999998	0.000109886	3.632403
4.59949	-2.56E-11	3.656923	0.0999999	0.000109322	3.656923
4.39946	-2.62E-11	3.681463	0.1	0.000108758	3.681463
4.19949	-4.41E-11	3.70598	0.1	0.000108191	3.70598
3.9995	-6.77E-11	3.730569	0.1	0.000107622	3.730569
3.79949	-6.91E-11	3.755103	0.1000001	0.000107053	3.755103
3.5995	-6.96E-11	3.779628	0.1	0.00010648	3.779628
3.3995	-6.11E-11	3.804143	0.1	0.00010591	3.804143
3.19951	-8.95E-11	3.828713	0.1000001	0.000105338	3.828713
2.99949	-1.139E-10	3.853242	0.1	0.000104764	3.853242
2.7995	-8.2E-11	3.877768	0.1	0.000104194	3.877768
2.59949	-7.51E-11	3.902278	0.0999998	0.000103623	3.902278
2.39952	-1.17E-10	3.926801	0.0999999	0.000103051	3.926801
2.1995	-1.27E-10	3.951322	0.1	0.00010248	3.951322
1.99949	-1.077E-10	3.975841	0.1000001	0.000101914	3.975841
1.7995	2.3E-12	4.000353	0.1	0.000101349	4.000353
1.59952	-1.133E-10	4.024881	0.1	0.000100782	4.024881
1.39949	-1.269E-10	4.049463	0.0999998	0.000100219	4.049463
1.19949	-1.351E-10	4.073982	0.0999999	9.9658E-05	4.073982
0.99951	-5.59E-11	4.122053	0.1000001	9.91E-05	4.122053
0.79949	-1.149E-10	4.146639	0.1	9.854E-05	4.146639
0.59951	-1.585E-10	4.171252	0.1000001	9.7983E-05	4.171252
0.39951	-1.436E-10	4.195775	0.1000001	9.7428E-05	4.195775
0.1995	-3.433E-10	4.222069	0.1000001	9.6876E-05	4.222069
-0.00051	-1.666E-10	4.246597	0.1	9.6326E-05	4.246597
-0.20049	-1.944E-10	4.271123	0.1000001	9.578E-05	4.271123
-0.4005	-1.662E-10	4.295624	0.0999999	9.5242E-05	4.295624
-0.60053	-1.614E-10	4.320155	0.1	9.4713E-05	4.320155
-0.80051	-1.783E-10	4.344699	0.1000002	9.4195E-05	4.344699
-1.00051	-1.994E-10	4.369222	0.0999999	9.3683E-05	4.369222
-1.20049	-1.943E-10	4.393755	0.1	9.3183E-05	4.393755
-1.40052	-1.763E-10	4.418277	0.1	9.2692E-05	4.418277
-1.60051	-1.815E-10	4.442799	0.0999998	9.2206E-05	4.442799
-1.8005	-2.129E-10	4.467328	0.0999999	9.1723E-05	4.467328
-2.00052	-2.057E-10	4.491921	0.0999998	9.1242E-05	4.491921
-2.2005	-2.104E-10	4.516437	0.0999999	9.0758E-05	4.516437
-2.4005	-2.036E-10	4.541054	0.1000001	9.0273E-05	4.541054
-2.6005	-2.122E-10	4.565587	0.0999998	8.979E-05	4.565587
-2.80049	-2.282E-10	4.590115	0.0999998	8.9303E-05	4.590115
-3.00049	-1.691E-10	4.640257	0.1	8.8821E-05	4.640257
-3.20049	-2.082E-10	4.664791	0.1	8.8332E-05	4.664791
-3.40048	-2.032E-10	4.692673	0.1000045	8.77677E-05	4.692673
-3.60049	-2.055E-10	4.717194	0.1000051	8.72804E-05	4.717194
-3.8005	-2.083E-10	4.741771	0.1000041	8.67876E-05	4.741771
-4.00047	-2.394E-10	4.76631	0.1000046	8.62978E-05	4.76631
-4.2005	-2.521E-10	4.790821	0.1000053	8.58055E-05	4.790821
-4.40051	-2.345E-10	4.815408	0.1000044	8.53106E-05	4.815408
-4.60049	-2.478E-10	4.839919	0.1000049	8.48165E-05	4.839919
-4.80049	-2.483E-10	4.864476	0.100004	8.43189E-05	4.864476
-5.00049	-2.476E-10	4.888997	0.1000042	8.38204E-05	4.888997
-5.2005	-2.685E-10	4.913529	0.1000044	8.33206E-05	4.913529
-5.40052	-2.64E-10	4.938045	0.1000049	8.28198E-05	4.938045
-5.60051	-2.279E-10	4.96257	0.100005	8.23174E-05	4.96257
-5.80048	-2.768E-10	4.987082	0.1000046	8.18121E-05	4.987082
-6.00051	-2.949E-10	5.011603	0.1000053	8.13062E-05	5.011603
-6.20049	-2.641E-10	5.036067	0.1000052	8.07979E-05	5.036067
-6.40049	-2.543E-10	5.060615	0.1000044	8.02878E-05	5.060615
-6.6005	-2.77E-10	5.085119	0.1000053	7.97755E-05	5.085119
-6.80049	-2.12E-10	5.144577	0.1000048	7.92646E-05	5.144577
-7.00048	-2.56E-10	5.169114	0.1000049	7.87485E-05	5.169114
-7.20049	-2.798E-10	5.193629	0.1000054	7.82311E-05	5.193629
-7.40048	-2.645E-10	5.218137	0.1000053	7.77111E-05	5.218137
-7.60048	-2.521E-10	5.242709	0.1000059	7.71899E-05	5.242709
-7.80048	-2.946E-10	5.267229	0.1000043	7.66653E-05	5.267229
-8.0005	-3.14E-10	5.291743	0.1000057	7.61409E-05	5.291743
-8.2005	-2.847E-10	5.316248	0.1000063	7.56127E-05	5.316248
-8.40051	-2.662E-10	5.340769	0.1000057	7.50819E-05	5.340769
-8.60048	-3.133E-10	5.365315	0.1000058	7.45502E-05	5.365315
-8.80047	-2.642E-10	5.389832	0.1000049	7.4016E-05	5.389832
-9.00048	-2.56E-10	5.414346	0.1000059	7.34799E-05	5.414346
-9.20049	-2.943E-10	5.43886	0.1000061	7.29428E-05	5.43886
-9.40048	-3.056E-10	5.463391	0.1000057	7.24018E-05	5.463391
-9.60047	-3.061E-10	5.487973	0.1000071	7.18601E-05	5.487973
-9.80047	-3.227E-10	5.512484	0.1000061	7.13191E-05	5.512484
-10.0005	-3.102E-10	5.537047	0.1000065	7.07751E-05	5.537047
-10.20048	-2.992E-10	5.561567	0.100006	7.02302E-05	5.561567
-10.40049	-3.198E-10	5.586095	0.1000054	6.96828E-05	5.586095
-10.60048	-2.628E-10	5.643241	0.1000072	6.91391E-05	5.643241
-10.80047	-3.061E-10	5.667781	0.1000061	6.85841E-05	5.667781
-11.00048	-4.546E-10	5.692314	0.1000068	6.80284E-05	5.692314
-11.20048	-3.417E-10	5.716829	0.1000063	6.74691E-05	5.716829
-11.40049	-2.976E-10	5.741402	0.100007	6.69102E-05	5.741402
-11.60048	-3.422E-10	5.765905	0.1000064	6.63472E-05	5.765905
-11.80047	-3.739E-10	5.790432	0.1000063	6.57824E-05	5.790432
-12.00048	-3.365E-10	5.814981	0.1000058	6.52154E-05	5.814981
#scan	iMeasureCycle=2	iMux=0	time=279.732	N=222	LocalTime=22/06/2023 07:07:30
#VGate(V)	IGate(A)	time(s)	VDrain(V)	IDrain(A)	time(s)
-12.00048	-6.88E-11	279.739484	0.1000081	6.5262E-05	279.739484
-11.80051	-1.4E-11	279.764371	0.1000074	6.58311E-05	279.764371
-11.6005	5.5E-12	279.790071	0.1000068	6.63984E-05	279.790071
-11.4005	4.39E-11	279.814616	0.1000069	6.69632E-05	279.814616
-11.20049	4.73E-11	279.839136	0.100008	6.75269E-05	279.839136
-11.0005	5.26E-11	279.863662	0.1000062	6.80861E-05	279.863662
-10.80049	7.67E-11	279.88817	0.1000072	6.8645E-05	279.88817
-10.60051	8.47E-11	279.912685	0.1000071	6.92015E-05	279.912685
-10.40048	8.85E-11	279.937198	0.100007	6.97551E-05	279.937198
-10.20052	1.051E-10	279.961773	0.1000067	7.03067E-05	279.961773
-10.00049	9.09E-11	279.986278	0.1000066	7.08551E-05	279.986278
-9.80051	1.04E-10	280.010907	0.1000057	7.14041E-05	280.010907
-9.6005	1.179E-10	280.035421	0.100006	7.19499E-05	280.035421
-9.4005	1.5E-12	280.060009	0.100007	7.24943E-05	280.060009
-9.20049	1.017E-10	280.084524	0.1000059	7.3035E-05	280.084524
-9.00048	1.141E-10	280.10907	0.1000061	7.35718E-05	280.10907
-8.80049	1.361E-10	280.133687	0.1000059	7.4106E-05	280.133687
-8.60049	1.547E-10	280.158212	0.1000063	7.46363E-05	280.158212
-8.4005	1.353E-10	280.182724	0.1000056	7.51647E-05	280.182724
-8.20048	1.359E-10	280.207247	0.1000059	7.56921E-05	280.207247
-8.00049	1.643E-10	280.231766	0.1000055	7.62165E-05	280.231766
-7.8005	1.723E-10	280.256321	0.1000054	7.67392E-05	280.256321
-7.60051	1.115E-10	280.303113	0.1000054	7.72585E-05	280.303113
-7.40048	1.33E-10	280.327664	0.1000054	7.77804E-05	280.327664
-7.2005	1.694E-10	280.352191	0.1000063	7.82993E-05	280.352191
-7.00051	1.876E-10	280.376707	0.1000054	7.88146E-05	280.376707
-6.80047	1.693E-10	280.401267	0.1000052	7.93298E-05	280.401267
-6.60052	1.65E-10	280.425791	0.1000057	7.98436E-05	280.425791
-6.40049	1.981E-10	280.450316	0.1000053	8.03541E-05	280.450316
-6.20049	1.941E-10	280.474831	0.100005	8.08631E-05	280.474831
-6.0005	1.935E-10	280.499342	0.1000055	8.1371E-05	280.499342
-5.80052	1.826E-10	280.524044	0.1000051	8.18768E-05	280.524044
-5.60051	2.15E-10	280.548587	0.1000042	8.23803E-05	280.548587
-5.4005	2.071E-10	280.573103	0.1000047	8.28836E-05	280.573103
-5.20051	2.032E-10	280.597633	0.1000046	8.33841E-05	280.597633
-5.00049	2.226E-10	280.62215	0.1000049	8.38838E-05	280.62215
-4.80049	2.114E-10	280.646709	0.1000047	8.4382E-05	280.646709
-4.6005	2.172E-10	280.67122	0.1000052	8.48804E-05	280.67122
-4.4005	2.386E-10	280.695746	0.1000052	8.53754E-05	280.695746
-4.20052	2.292E-10	280.720268	0.1000058	8.58695E-05	280.720268
-4.00049	2.293E-10	280.744795	0.100005	8.63626E-05	280.744795
-3.80047	1.747E-10	280.804647	0.1000047	8.68513E-05	280.804647
-3.60049	2.282E-10	280.829191	0.1000053	8.73431E-05	280.829191
-3.40051	2.299E-10	280.853722	0.1000048	8.78324E-05	280.853722
-3.20051	2.348E-10	280.87823	0.1000044	8.83206E-05	280.87823
-3.0005	2.47E-10	280.902804	0.1000038	8.88082E-05	280.902804
-2.8005	2.274E-10	280.927335	0.1000047	8.92953E-05	280.927335
-2.60052	2.505E-10	280.951834	0.1000039	8.97809E-05	280.951834
-2.40051	2.569E-10	280.97641	0.1000039	9.02662E-05	280.97641
-2.20051	2.613E-10	281.000947	0.1000042	9.07514E-05	281.000947
-2.0005	2.497E-10	281.025554	0.1000039	9.12351E-05	281.025554
-1.80052	2.572E-10	281.050099	0.1000048	9.17189E-05	281.050099
-1.60049	2.798E-10	281.07462	0.100004	9.22053E-05	281.07462
-1.40052	3.746E-10	281.099145	0.100004	9.26959E-05	281.099145
-1.2005	2.731E-10	281.12367	0.1000053	9.3193E-05	281.12367
-1.00051	2.862E-10	281.148213	0.1000051	9.36979E-05	281.148213
-0.8005	2.979E-10	281.172726	0.1000047	9.42131E-05	281.172726
-0.60049	2.931E-10	281.197273	0.1000043	9.47386E-05	281.197273
-0.40048	2.868E-10	281.221784	0.1000047	9.5271E-05	281.221784
-0.20049	2.966E-10	281.246434	0.1000048	9.58121E-05	281.246434
-0.00052	2.265E-10	281.306178	0.1000044	9.63525E-05	281.306178
0.19949	2.723E-10	281.33068	0.1000043	9.6904E-05	281.33068
0.3995	3.089E-10	281.355199	0.1000046	9.74555E-05	281.355199
0.59949	2.957E-10	281.379718	0.1000053	9.8008E-05	281.379718
0.79949	2.927E-10	281.404276	0.1000046	9.85645E-05	281.404276
0.99949	2.99E-10	281.428797	0.1000036	9.91207E-05	281.428797
1.19949	3.141E-10	281.453319	0.1000036	9.968E-05	281.453319
1.39952	5.87E-11	281.477837	0.100004	0.0001002418	281.477837
1.59949	2.846E-10	281.502344	0.100004	0.0001008024	281.502344
1.79948	3.006E-10	281.526955	0.1000035	0.0001013659	281.526955
1.99947	3.222E-10	281.551496	0.1000034	0.0001019305	281.551496
2.1995	3.28E-10	281.576002	0.1000036	0.0001024976	281.576002
2.3995	3.213E-10	281.600535	0.1000036	0.0001030666	281.600535
2.59949	3.243E-10	281.625054	0.100003	0.000103634	281.625054
2.79948	3.308E-10	281.649637	0.1000039	0.0001042037	281.649637
2.99949	2.939E-10	281.696612	0.0999999	0.000104842	281.696612
3.19947	3.07E-10	281.721124	0.0999998	0.000105413	281.721124
3.39951	3.205E-10	281.745664	0.1	0.000105983	281.745664
3.59948	2.675E-10	281.809	0.1	0.000106543	281.809
3.79947	3.242E-10	281.833542	0.1000001	0.000107114	281.833542
3.99949	3.156E-10	281.858103	0.1	0.000107683	281.858103
4.19949	3.245E-10	281.882611	0.0999998	0.000108247	281.882611
4.39949	3.321E-10	281.907191	0.1	0.000108811	281.907191
4.59949	3.464E-10	281.931713	0.1	0.000109374	281.931713
4.79948	3.598E-10	281.956236	0.1	0.000109935	281.956236
4.99949	3.503E-10	281.980807	0.0999999	0.000110491	281.980807
5.19948	3.587E-10	282.005327	0.1	0.000111047	282.005327
5.39949	3.619E-10	282.029949	0.0999999	0.000111599	282.029949
5.59951	3.573E-10	282.054655	0.1000001	0.000112144	282.054655
5.7995	3.804E-10	282.079198	0.0999999	0.000112692	282.079198
5.99949	3.669E-10	282.103713	0.0999999	0.000113233	282.103713
6.19948	3.581E-10	282.128245	0.1000002	0.000113774	282.128245
6.39949	3.801E-10	282.152772	0.1000001	0.00011431	282.152772
6.59949	3.982E-10	282.177309	0.1000001	0.000114843	282.177309
6.79948	3.746E-10	282.201819	0.0999999	0.000115374	282.201819
6.99947	3.622E-10	282.226335	0.0999999	0.000115899	282.226335
7.19948	3.952E-10	282.25085	0.0999998	0.000116423	282.25085
7.39952	3.307E-10	282.309514	0.1	0.000116939	282.309514
7.59951	3.693E-10	282.334039	0.1	0.000117457	282.334039
7.79948	4.004E-10	282.358663	0.1	0.000117973	282.358663
7.99948	3.789E-10	282.383173	0.1000002	0.000118486	282.383173
8.19946	3.884E-10	282.407754	0.1	0.000118996	282.407754
8.39949	4.022E-10	282.432258	0.0999998	0.000119502	282.432258
8.59948	4.067E-10	282.456751	0.1	0.000120005	282.456751
8.79951	4.015E-10	282.481272	0.1	0.000120506	282.481272
8.99948	5.133E-10	282.505787	0.1	0.000121001	282.505787
9.19949	4.282E-10	282.530396	0.1	0.000121498	282.530396
9.39948	4.356E-10	282.554921	0.1	0.000121994	282.554921
9.59947	4.131E-10	282.57945	0.1000001	0.000122486	282.57945
9.79947	4.389E-10	282.603963	0.0999999	0.000122978	282.603963
9.99947	4.265E-10	282.628495	0.0999999	0.000123465	282.628495
9.99947	3.679E-10	282.651884	0.1000001	0.000123466	282.651884
9.7995	3.109E-10	282.676415	0.1	0.000122981	282.676415
9.59948	2.459E-10	282.700922	0.1000001	0.00012249	282.700922
9.3995	2.016E-10	282.725427	0.1000001	0.000122001	282.725427
9.1995	1.986E-10	282.749946	0.1000001	0.000121505	282.749946
8.9995	2.246E-10	282.810959	0.0999999	0.00012101	282.810959
8.79951	1.748E-10	282.835493	0.0999997	0.000120509	282.835493
8.59951	1.334E-10	282.860122	0.1000001	0.000120001	282.860122
8.39951	6.88E-11	282.884639	0.1000001	0.00011949	282.884639
8.1995	6.63E-11	282.909193	0.1	0.000118976	282.909193
7.99947	8.61E-11	282.933712	0.0999999	0.000118458	282.933712
7.79951	7.75E-11	282.95825	0.0999999	0.000117936	282.95825
7.59948	6.24E-11	282.98283	0.0999999	0.000117414	282.98283
7.39949	5.75E-11	283.007347	0.1000001	0.000116891	283.007347
7.1995	4.07E-11	283.031979	0.1	0.000116361	283.031979
6.99947	5.32E-11	283.056503	0.1	0.00011583	283.056503
6.79949	3.11E-11	283.08103	0.0999999	0.000115298	283.08103
6.5995	3.3E-12	283.105538	0.0999999	0.000114761	283.105538
6.39948	1.11E-11	283.130076	0.0999999	0.000114224	283.130076
6.19949	2.87E-11	283.154584	0.0999999	0.000113684	283.154584
5.99947	-9.3E-12	283.179121	0.1	0.000113139	283.179121
5.79949	-1.79E-11	283.203635	0.0999998	0.00011259	283.203635
5.59949	-1E-11	283.228168	0.0999999	0.000112038	283.228168
5.39949	-2.28E-11	283.252692	0.0999999	0.000111483	283.252692
5.1995	1.29E-11	283.31277	0.0999998	0.000110931	283.31277
4.99949	3.1E-12	283.337302	0.0999999	0.000110373	283.337302
4.79949	-3.15E-11	283.36183	0.0999999	0.000109813	283.36183
4.5995	-5.62E-11	283.386374	0.0999999	0.000109249	283.386374
4.39949	-4.08E-11	283.410944	0.1	0.000108683	283.410944
4.19947	-3.54E-11	283.435474	0.0999999	0.000108114	283.435474
3.99951	-6.58E-11	283.459988	0.0999998	0.000107544	283.459988
3.7995	-8.58E-11	283.484531	0.1	0.000106976	283.484531
3.59949	-6.31E-11	283.50904	0.1	0.000106405	283.50904
3.3995	-6.8E-11	283.533659	0.1	0.000105832	283.533659
3.1995	-9.37E-11	283.558183	0.0999998	0.000105261	283.558183
2.99951	-1.021E-10	283.582713	0.1000001	0.000104688	283.582713
2.7995	-8.77E-11	283.607229	0.1000001	0.000104118	283.607229
2.59951	-1.038E-10	283.631745	0.1	0.000103547	283.631745
2.3995	-1.142E-10	283.656319	0.1	0.000102978	283.656319
2.19948	-1.043E-10	283.680888	0.1000001	0.00010241	283.680888
1.9995	-1.249E-10	283.705384	0.1000001	0.000101839	283.705384
1.79948	-1.205E-10	283.729893	0.0999998	0.000101273	283.729893
1.59951	-1.209E-10	283.754399	0.1	0.000100707	283.754399
1.39951	-6.1E-11	283.814339	0.1000001	0.000100147	283.814339
1.19949	-1.157E-10	283.838879	0.1000001	9.9584E-05	283.838879
0.99948	-1.217E-10	283.863417	0.1000002	9.9023E-05	283.863417
0.7995	-1.265E-10	283.88795	0.0999999	9.8463E-05	283.88795
0.59953	3.36E-11	283.912527	0.0999999	9.7907E-05	283.912527
0.39951	-1.249E-10	283.937058	0.1	9.7353E-05	283.937058
0.1995	-1.341E-10	283.961639	0.1	9.68E-05	283.961639
-0.0005	-1.549E-10	283.98621	0.1	9.625E-05	283.98621
-0.20051	-1.531E-10	284.01073	0.0999998	9.5706E-05	284.01073
-0.40049	-1.529E-10	284.035436	0.1000001	9.5166E-05	284.035436
-0.60049	-1.582E-10	284.060067	0.0999999	9.4638E-05	284.060067
-0.80049	-1.856E-10	284.084596	0.0999998	9.4118E-05	284.084596
-1.00049	-1.793E-10	284.109151	0.1	9.3609E-05	284.109151
-1.20048	-1.67E-10	284.133666	0.0999998	9.3111E-05	284.133666
-1.40049	-1.779E-10	284.158209	0.0999999	9.262E-05	284.158209
-1.60048	-1.986E-10	284.182732	0.0999998	9.2134E-05	284.182732
-1.8005	-1.936E-10	284.207243	0.1000002	9.165E-05	284.207243
-2.00052	-1.868E-10	284.231746	0.0999998	9.1167E-05	284.231746
-2.20049	-1.969E-10	284.256273	0.1000001	9.0686E-05	284.256273
-2.4005	-4.179E-10	284.315864	0.0999999	9.0202E-05	284.315864
-2.60049	-1.903E-10	284.340416	0.1000001	8.9718E-05	284.340416
-2.80049	-2.143E-10	284.364963	0.0999998	8.9232E-05	284.364963
-3.00051	-2.206E-10	284.389513	0.1	8.8746E-05	284.389513
-3.2005	-1.956E-10	284.417416	0.1000042	8.8183E-05	284.417416
-3.4005	-2.217E-10	284.441935	0.1000039	8.76952E-05	284.441935
-3.6005	-2.249E-10	284.466474	0.1000045	8.7205E-05	284.466474
-3.80048	-2.269E-10	284.490991	0.1000049	8.67165E-05	284.490991
-4.0005	-2.345E-10	284.515505	0.1000043	8.62239E-05	284.515505
-4.2005	-2.217E-10	284.540107	0.1000042	8.57311E-05	284.540107
-4.4005	-2.466E-10	284.564728	0.100005	8.52377E-05	284.564728
-4.60049	-2.497E-10	284.589242	0.1000052	8.47427E-05	284.589242
-4.80049	-2.32E-10	284.61375	0.1000042	8.42459E-05	284.61375
-5.00052	-2.449E-10	284.638265	0.1000044	8.37464E-05	284.638265
-5.20049	-2.545E-10	284.662845	0.1000046	8.32472E-05	284.662845
-5.40051	-2.651E-10	284.687367	0.1000047	8.27462E-05	284.687367
-5.6005	-2.463E-10	284.711886	0.1000054	8.22434E-05	284.711886
-5.8005	-2.482E-10	284.736396	0.1000049	8.17385E-05	284.736396
-6.00049	-2.772E-10	284.760912	0.1000047	8.12312E-05	284.760912
-6.20048	-1.993E-10	284.820544	0.100005	8.07261E-05	284.820544
-6.4005	-2.627E-10	284.845071	0.1000053	8.02156E-05	284.845071
-6.6005	-2.571E-10	284.869627	0.1000054	7.97038E-05	284.869627
-6.8005	-2.521E-10	284.894155	0.1000049	7.919E-05	284.894155
-7.00049	-2.738E-10	284.918711	0.1000066	7.86754E-05	284.918711
-7.20048	-2.778E-10	284.943241	0.1000062	7.81573E-05	284.943241
-7.4005	-2.808E-10	284.967759	0.1000056	7.76362E-05	284.967759
-7.60049	-2.628E-10	284.992344	0.1000058	7.71155E-05	284.992344
-7.80046	-2.796E-10	285.016867	0.1000056	7.65919E-05	285.016867
-8.00049	-3.049E-10	285.041465	0.1000058	7.60654E-05	285.041465
-8.20048	-2.806E-10	285.065995	0.1000056	7.55375E-05	285.065995
-8.4005	-2.863E-10	285.090515	0.1000049	7.50066E-05	285.090515
-8.60049	-2.968E-10	285.115038	0.1000059	7.44759E-05	285.115038
-8.80048	-3.039E-10	285.139553	0.1000058	7.39413E-05	285.139553
-9.0005	-2.996E-10	285.164082	0.1000059	7.34066E-05	285.164082
-9.20048	-3.107E-10	285.18868	0.1000052	7.28686E-05	285.18868
-9.40048	-3.105E-10	285.213215	0.1000058	7.23271E-05	285.213215
-9.60051	-3.077E-10	285.237736	0.1000064	7.17856E-05	285.237736
-9.80048	-3.155E-10	285.262268	0.1000062	7.12442E-05	285.262268
-10.00049	-1.103E-10	285.31916	0.1000058	7.07056E-05	285.31916
-10.20049	-2.857E-10	285.343687	0.1000066	7.01602E-05	285.343687
-10.40047	-3.041E-10	285.368214	0.1000071	6.96126E-05	285.368214
-10.60048	-2.972E-10	285.392726	0.1000071	6.90609E-05	285.392726
-10.80047	-2.976E-10	285.417309	0.1000067	6.85076E-05	285.417309
-11.00048	-3.218E-10	285.441818	0.1000075	6.79518E-05	285.441818
-11.20048	-3.31E-10	285.466336	0.1000066	6.73929E-05	285.466336
-11.40049	-3.125E-10	285.490855	0.1000075	6.68332E-05	285.490855
-11.60047	-3.187E-10	285.515385	0.1000065	6.62698E-05	285.515385
-11.8005	-3.295E-10	285.539992	0.1000073	6.57058E-05	285.539992
-12.00046	-3.411E-10	285.564514	0.1000075	6.51392E-05	285.564514
#scan	iMeasureCycle=3	iMux=0	time=319.828	N=222	LocalTime=22/06/2023 07:08:10
#VGate(V)	IGate(A)	time(s)	VDrain(V)	IDrain(A)	time(s)
-12.00048	-6.71E-11	319.835489	0.1000068	6.52453E-05	319.835489
-11.80049	-3E-13	319.860353	0.1000071	6.58151E-05	319.860353
-11.60048	3.2E-12	319.88633	0.1000061	6.63824E-05	319.88633
-11.4005	2.86E-11	319.910863	0.1000075	6.6948E-05	319.910863
-11.2005	3.5E-11	319.935398	0.1000066	6.75104E-05	319.935398
-11.00048	6.73E-11	319.95991	0.1000067	6.80708E-05	319.95991
-10.80051	8.38E-11	319.984429	0.1000065	6.863E-05	319.984429
-10.6005	7.3E-11	320.008954	0.1000064	6.91862E-05	320.008954
-10.4005	9.09E-11	320.033471	0.1000066	6.97398E-05	320.033471
-10.20049	9.62E-11	320.058051	0.1000067	7.02912E-05	320.058051
-10.00049	8.87E-11	320.082663	0.1000062	7.084E-05	320.082663
-9.8005	1.142E-10	320.107191	0.1000074	7.13899E-05	320.107191
-9.6005	1.197E-10	320.131709	0.1000064	7.19337E-05	320.131709
-9.40048	1.092E-10	320.156227	0.1000056	7.24789E-05	320.156227
-9.2005	1.262E-10	320.180736	0.1000065	7.3021E-05	320.180736
-9.0005	1.532E-10	320.205272	0.1000067	7.35565E-05	320.205272
-8.8005	1.329E-10	320.22979	0.1000063	7.40909E-05	320.22979
-8.60051	1.29E-10	320.254338	0.1000066	7.46208E-05	320.254338
-8.4005	1.479E-10	320.278863	0.1000053	7.51492E-05	320.278863
-8.20051	1.617E-10	320.30347	0.100006	7.56769E-05	320.30347
-8.0005	1.522E-10	320.327994	0.1000075	7.62031E-05	320.327994
-7.80048	1.535E-10	320.35252	0.1000056	7.67237E-05	320.35252
-7.60051	1.188E-10	320.399348	0.1000052	7.72433E-05	320.399348
-7.40048	1.59E-10	320.423895	0.1000061	7.77647E-05	320.423895
-7.20051	1.772E-10	320.448416	0.1000062	7.82822E-05	320.448416
-7.00051	1.632E-10	320.472934	0.1000052	7.87988E-05	320.472934
-6.80049	1.779E-10	320.497501	0.1000063	7.93152E-05	320.497501
-6.6005	1.917E-10	320.522033	0.1000057	7.98268E-05	320.522033
-6.40048	1.842E-10	320.546537	0.100005	8.03378E-05	320.546537
-6.20049	2.619E-10	320.571055	0.1000058	8.08474E-05	320.571055
-6.00049	2.117E-10	320.595679	0.1000061	8.13555E-05	320.595679
-5.8005	2.127E-10	320.620197	0.100006	8.18607E-05	320.620197
-5.6005	2.251E-10	320.644721	0.1000058	8.23662E-05	320.644721
-5.40049	2.064E-10	320.669253	0.1000058	8.28682E-05	320.669253
-5.20049	2.115E-10	320.693773	0.1000059	8.33687E-05	320.693773
-5.00049	2.214E-10	320.718297	0.1000064	8.38682E-05	320.718297
-4.80049	2.18E-10	320.742879	0.1000054	8.43661E-05	320.742879
-4.60049	2.347E-10	320.767387	0.1000048	8.48627E-05	320.767387
-4.40049	1.104E-10	320.791908	0.1000056	8.53583E-05	320.791908
-4.2005	2.11E-10	320.81643	0.1000045	8.58521E-05	320.81643
-4.0005	2.31E-10	320.840965	0.1000044	8.63455E-05	320.840965
-3.8005	1.939E-10	320.900997	0.1000057	8.68341E-05	320.900997
-3.60049	2.121E-10	320.925476	0.1000048	8.73247E-05	320.925476
-3.40049	2.133E-10	320.949997	0.1000042	8.78135E-05	320.949997
-3.20052	2.403E-10	320.974509	0.1000045	8.83035E-05	320.974509
-3.0005	2.415E-10	320.999097	0.1000046	8.87921E-05	320.999097
-2.8005	2.312E-10	321.023618	0.1000047	8.9277E-05	321.023618
-2.6005	2.525E-10	321.048135	0.1000052	8.97638E-05	321.048135
-2.40051	2.522E-10	321.072709	0.1000046	9.02475E-05	321.072709
-2.20052	2.545E-10	321.097299	0.1000044	9.07323E-05	321.097299
-2.00053	2.559E-10	321.121827	0.1000048	9.12163E-05	321.121827
-1.8005	2.727E-10	321.146369	0.1000042	9.17006E-05	321.146369
-1.60049	2.684E-10	321.170882	0.1000045	9.21871E-05	321.170882
-1.40051	2.583E-10	321.195586	0.1000048	9.26759E-05	321.195586
-1.20052	2.779E-10	321.22012	0.1000041	9.31698E-05	321.22012
-1.0005	3.004E-10	321.244665	0.1000049	9.36762E-05	321.244665
-0.80052	2.76E-10	321.26919	0.1000039	9.41901E-05	321.26919
-0.6005	2.823E-10	321.293732	0.1000041	9.47147E-05	321.293732
-0.40051	2.939E-10	321.318342	0.1000041	9.52489E-05	321.318342
-0.20051	2.901E-10	321.342849	0.1000041	9.57879E-05	321.342849
-0.00051	2.338E-10	321.402541	0.1000044	9.63291E-05	321.402541
0.19948	2.842E-10	321.427066	0.1000035	9.68803E-05	321.427066
0.39949	2.806E-10	321.451594	0.1000038	9.74334E-05	321.451594
0.5995	2.744E-10	321.476102	0.1000041	9.79871E-05	321.476102
0.79948	3.033E-10	321.50068	0.1000039	9.85434E-05	321.50068
0.99949	3.05E-10	321.525181	0.100004	9.91E-05	321.525181
1.19947	2.93E-10	321.54971	0.1000036	9.96593E-05	321.54971
1.39951	3.051E-10	321.574217	0.100004	0.0001002212	321.574217
1.59951	3.28E-10	321.598829	0.1000038	0.000100783	321.598829
1.79949	3.234E-10	321.623347	0.1000038	0.0001013476	321.623347
1.9995	3.15E-10	321.647879	0.1000038	0.0001019124	321.647879
2.19949	3.21E-10	321.672386	0.100004	0.0001024792	321.672386
2.39946	3.398E-10	321.696905	0.1000038	0.0001030467	321.696905
2.59951	3.289E-10	321.721427	0.1000038	0.0001036163	321.721427
2.79947	3.282E-10	321.746033	0.1000035	0.0001041848	321.746033
2.99947	2.735E-10	321.792997	0.0999999	0.000104826	321.792997
3.19949	3.196E-10	321.817509	0.0999997	0.000105394	321.817509
3.39947	3.436E-10	321.842038	0.0999999	0.000105965	321.842038
3.5995	2.847E-10	321.905492	0.0999999	0.000106528	321.905492
3.79947	3.063E-10	321.930067	0.1000002	0.000107097	321.930067
3.99948	3.103E-10	321.954592	0.0999997	0.000107666	321.954592
4.19949	4.96E-10	321.979129	0.1000001	0.000108232	321.979129
4.39948	3.559E-10	322.003703	0.0999998	0.000108798	322.003703
4.59949	3.542E-10	322.028249	0.0999999	0.000109358	322.028249
4.79948	3.594E-10	322.052729	0.0999998	0.00010992	322.052729
4.99948	3.632E-10	322.077316	0.1	0.000110475	322.077316
5.19949	3.673E-10	322.101916	0.1000002	0.000111031	322.101916
5.39948	3.602E-10	322.126465	0.1000001	0.000111583	322.126465
5.59949	3.673E-10	322.150988	0.0999999	0.000112131	322.150988
5.79949	3.767E-10	322.175536	0.1000001	0.000112676	322.175536
5.9995	3.679E-10	322.200059	0.1000002	0.000113219	322.200059
6.19949	3.841E-10	322.224644	0.1	0.000113758	322.224644
6.39949	3.823E-10	322.249154	0.0999998	0.000114296	322.249154
6.59949	2.81E-10	322.273669	0.1000001	0.000114828	322.273669
6.79948	3.728E-10	322.298181	0.1	0.00011536	322.298181
6.99946	3.949E-10	322.322696	0.1	0.000115886	322.322696
7.19948	3.773E-10	322.347213	0.0999999	0.000116409	322.347213
7.39949	3.335E-10	322.401564	0.0999999	0.000116925	322.401564
7.59948	3.765E-10	322.426136	0.0999999	0.000117445	322.426136
7.79949	3.798E-10	322.450671	0.1000001	0.00011796	322.450671
7.99948	3.789E-10	322.475176	0.0999998	0.000118473	322.475176
8.1995	3.922E-10	322.499738	0.1000001	0.000118982	322.499738
8.39948	4.013E-10	322.52426	0.0999998	0.000119487	322.52426
8.5995	4.042E-10	322.548789	0.0999999	0.000119992	322.548789
8.79949	3.926E-10	322.573298	0.1	0.00012049	322.573298
8.99948	3.936E-10	322.597935	0.1000002	0.000120987	322.597935
9.19949	4.295E-10	322.622445	0.1000001	0.000121482	322.622445
9.39949	4.141E-10	322.647054	0.0999998	0.000121978	322.647054
9.59949	4.053E-10	322.671561	0.1	0.000122471	322.671561
9.79948	4.116E-10	322.696066	0.0999999	0.000122962	322.696066
9.99947	4.316E-10	322.720589	0.1	0.00012345	322.720589
9.99949	3.557E-10	322.744095	0.1	0.00012345	322.744095
9.79949	2.793E-10	322.768601	0.0999998	0.000122964	322.768601
9.59948	2.49E-10	322.793119	0.0999999	0.000122474	322.793119
9.39948	2.077E-10	322.817633	0.1000001	0.000121984	322.817633
9.19949	1.785E-10	322.842153	0.0999999	0.000121489	322.842153
8.9995	2.185E-10	322.891346	0.0999999	0.000120993	322.891346
8.7995	1.506E-10	322.915929	0.1	0.000120491	322.915929
8.5995	1.36E-10	322.940538	0.0999997	0.000119982	322.940538
8.3995	1.409E-10	322.965076	0.1000001	0.000119473	322.965076
8.1995	1.264E-10	322.99125	0.1000001	0.000118957	322.99125
7.99949	8.87E-11	323.01577	0.1000001	0.000118439	323.01577
7.7995	7.3E-11	323.040312	0.1000001	0.000117918	323.040312
7.5995	8.11E-11	323.064829	0.1000001	0.000117394	323.064829
7.3995	6.19E-11	323.089455	0.0999999	0.000116869	323.089455
7.19951	3.96E-11	323.113977	0.0999999	0.000116342	323.113977
6.9995	4.13E-11	323.138573	0.0999999	0.000115813	323.138573
6.79951	4.41E-11	323.16309	0.0999999	0.000115277	323.16309
6.5995	1.94E-11	323.187594	0.1000004	0.00011474	323.187594
6.39949	7E-12	323.212127	0.0999998	0.000114204	323.212127
6.19951	1.3E-11	323.236593	0.0999999	0.000113662	323.236593
5.99951	-1E-13	323.261117	0.0999999	0.000113116	323.261117
5.7995	-7.6E-12	323.285639	0.1000002	0.00011257	323.285639
5.5995	-2.3E-12	323.310159	0.0999999	0.000112019	323.310159
5.39948	-2.45E-11	323.334685	0.1	0.000111463	323.334685
5.1995	-2.95E-11	323.359206	0.1000001	0.000110907	323.359206
4.99951	3.18E-11	323.409155	0.1000001	0.000110349	323.409155
4.79951	-1.16E-11	323.433715	0.1	0.000109788	323.433715
4.59951	-2.71E-11	323.458256	0.0999998	0.000109225	323.458256
4.3995	-3.5E-11	323.482803	0.0999999	0.000108657	323.482803
4.19951	-3.9E-11	323.507374	0.1000001	0.000108088	323.507374
3.99949	-5.77E-11	323.531901	0.1000001	0.000107521	323.531901
3.79948	-6.23E-11	323.556494	0.1	0.000106952	323.556494
3.5995	-5.95E-11	323.581016	0.0999997	0.000106379	323.581016
3.39951	-7.43E-11	323.605642	0.1000001	0.000105806	323.605642
3.19952	-1.306E-10	323.630159	0.0999999	0.000105236	323.630159
2.99949	-1.136E-10	323.654697	0.1000001	0.000104666	323.654697
2.79951	-9.93E-11	323.679208	0.1000002	0.000104092	323.679208
2.59949	-1.039E-10	323.70373	0.1	0.00010352	323.70373
2.39951	-1.209E-10	323.728265	0.0999999	0.000102951	323.728265
2.19949	-1.092E-10	323.752853	0.1000002	0.000102381	323.752853
1.99948	-1.122E-10	323.777389	0.0999999	0.000101813	323.777389
1.79949	-1.337E-10	323.80193	0.1000001	0.000101246	323.80193
1.59952	-1.19E-10	323.826443	0.1000001	0.000100681	323.826443
1.3995	-1.281E-10	323.850971	0.0999999	0.000100115	323.850971
1.19951	-8.46E-11	323.910716	0.0999998	9.9556E-05	323.910716
0.99951	-1.21E-10	323.935261	0.1	9.8995E-05	323.935261
0.79949	-1.181E-10	323.95978	0.1	9.8438E-05	323.95978
0.5995	-1.346E-10	323.984316	0.1	9.788E-05	323.984316
0.39949	-1.532E-10	324.008869	0.1	9.7324E-05	324.008869
0.19949	-1.371E-10	324.033409	0.0999999	9.6771E-05	324.033409
-0.00048	-1.532E-10	324.058013	0.1	9.622E-05	324.058013
-0.2005	-1.585E-10	324.082588	0.0999998	9.5677E-05	324.082588
-0.4005	-1.649E-10	324.107205	0.0999999	9.5139E-05	324.107205
-0.60049	-1.692E-10	324.131737	0.1	9.4609E-05	324.131737
-0.80051	-1.712E-10	324.156281	0.1	9.409E-05	324.156281
-1.00049	-1.898E-10	324.180786	0.1000001	9.3582E-05	324.180786
-1.20051	-1.784E-10	324.205326	0.0999998	9.3084E-05	324.205326
-1.4005	-1.889E-10	324.229845	0.1000001	9.2591E-05	324.229845
-1.60049	-2.061E-10	324.254381	0.1	9.2105E-05	324.254381
-1.80051	-1.93E-10	324.278889	0.0999998	9.1623E-05	324.278889
-2.00051	-1.898E-10	324.303428	0.1	9.1138E-05	324.303428
-2.2005	-2.169E-10	324.327938	0.0999997	9.0657E-05	324.327938
-2.4005	-2.058E-10	324.352479	0.0999999	9.0172E-05	324.352479
-2.60046	-1.781E-10	324.407975	0.1000001	8.9693E-05	324.407975
-2.80051	-1.862E-10	324.43256	0.0999998	8.9207E-05	324.43256
-3.00051	-1.952E-10	324.457434	0.1	8.8721E-05	324.457434
-3.20051	-1.784E-10	324.485293	0.1000048	8.81562E-05	324.485293
-3.40051	-2.158E-10	324.509895	0.1000048	8.76678E-05	324.509895
-3.60048	-2.35E-10	324.534397	0.1000045	8.71797E-05	324.534397
-3.80049	-2.073E-10	324.558934	0.1000052	8.66907E-05	324.558934
-4.00049	-2.266E-10	324.583435	0.1000047	8.61979E-05	324.583435
-4.20048	-2.461E-10	324.60804	0.1000053	8.5706E-05	324.60804
-4.40049	-2.389E-10	324.63256	0.1000052	8.52113E-05	324.63256
-4.60047	-2.384E-10	324.657085	0.1000044	8.4716E-05	324.657085
-4.80049	-2.419E-10	324.681601	0.1000054	8.42191E-05	324.681601
-5.00051	-2.635E-10	324.706133	0.1000043	8.37206E-05	324.706133
-5.20051	-2.479E-10	324.730639	0.1000052	8.32218E-05	324.730639
-5.4005	-2.505E-10	324.755307	0.1000051	8.27202E-05	324.755307
-5.60052	-2.13E-10	324.779852	0.1000052	8.22176E-05	324.779852
-5.80048	-1.895E-10	324.804371	0.1000062	8.17137E-05	324.804371
-6.0005	-2.459E-10	324.828896	0.1000053	8.12071E-05	324.828896
-6.2005	-2.627E-10	324.853421	0.1000063	8.06992E-05	324.853421
-6.40049	-2.031E-10	324.916873	0.1000071	8.01927E-05	324.916873
-6.60049	-2.505E-10	324.941411	0.1000062	7.96784E-05	324.941411
-6.80051	-2.471E-10	324.965977	0.1000058	7.9165E-05	324.965977
-7.00051	-2.616E-10	324.990483	0.100006	7.86499E-05	324.990483
-7.20049	-2.632E-10	325.015047	0.1000065	7.8133E-05	325.015047
-7.40049	-4.291E-10	325.039562	0.100006	7.76128E-05	325.039562
-7.6005	-2.891E-10	325.064071	0.1000057	7.70906E-05	325.064071
-7.80047	-2.802E-10	325.088814	0.100006	7.65673E-05	325.088814
-8.0005	-3.015E-10	325.113343	0.1000056	7.60403E-05	325.113343
-8.20049	-2.841E-10	325.13786	0.1000064	7.55139E-05	325.13786
-8.40048	-2.951E-10	325.162385	0.1000062	7.49838E-05	325.162385
-8.6005	-3.132E-10	325.186892	0.1000047	7.44502E-05	325.186892
-8.80046	-2.949E-10	325.211442	0.1000052	7.39166E-05	325.211442
-9.00049	-2.989E-10	325.23596	0.100006	7.33802E-05	325.23596
-9.2005	-3.149E-10	325.260486	0.1000064	7.28431E-05	325.260486
-9.40049	-3.097E-10	325.285	0.1000057	7.23011E-05	325.285
-9.6005	-3.062E-10	325.309534	0.1000062	7.17605E-05	325.309534
-9.80049	-3.219E-10	325.334054	0.1000057	7.12198E-05	325.334054
-10.00049	-3.18E-10	325.358677	0.1000066	7.06744E-05	325.358677
-10.20047	-2.583E-10	325.415881	0.1000062	7.01351E-05	325.415881
-10.4005	-3.105E-10	325.44041	0.1000072	6.95882E-05	325.44041
-10.60048	-3.179E-10	325.464926	0.1000073	6.90373E-05	325.464926
-10.80048	-3.042E-10	325.489453	0.1000066	6.84826E-05	325.489453
-11.00047	-3.28E-10	325.514031	0.1000067	6.79273E-05	325.514031
-11.20048	-3.377E-10	325.538557	0.1000059	6.73677E-05	325.538557
-11.40047	-3.266E-10	325.563067	0.1000052	6.68072E-05	325.563067
-11.6005	-3.43E-10	325.587594	0.1000067	6.62454E-05	325.587594
-11.80049	-3.37E-10	325.612196	0.1000069	6.56801E-05	325.612196
-12.00047	-3.401E-10	325.636721	0.1000071	6.5114E-05	325.636721
