#scan	iMeasureCycle=1	iMux=0	time=0.038	N=222	LocalTime=22/06/2023 05:14:50
#VGate(V)	IGate(A)	time(s)	VDrain(V)	IDrain(A)	time(s)
-12.00047	-3.1525E-09	0.063823	0.1000057	6.19495E-05	0.063823
-11.80049	-3.0184E-09	0.088697	0.1000065	6.2533E-05	0.088697
-11.60051	-1.1952E-09	0.113207	0.1000065	6.31135E-05	0.113207
-11.40051	-4.901E-10	0.137722	0.1000056	6.36907E-05	0.137722
-11.20051	-3.32E-10	0.162239	0.1000059	6.4266E-05	0.162239
-11.00051	-2.162E-10	0.186762	0.100006	6.48395E-05	0.186762
-10.8005	-1.544E-10	0.211274	0.1000057	6.54098E-05	0.211274
-10.60052	-9.59E-11	0.235785	0.100006	6.59779E-05	0.235785
-10.40049	-8.77E-11	0.260304	0.1000057	6.65437E-05	0.260304
-10.20051	-3.79E-11	0.284823	0.1000055	6.71086E-05	0.284823
-10.00048	-1.45E-11	0.309335	0.1000053	6.76708E-05	0.309335
-9.80047	-7E-12	0.333853	0.1000056	6.82314E-05	0.333853
-9.60048	4.7E-12	0.358371	0.1000058	6.87901E-05	0.358371
-9.4005	3.23E-11	0.382974	0.1000064	6.93471E-05	0.382974
-9.20049	2.74E-11	0.407526	0.1000042	6.98999E-05	0.407526
-9.00048	5.04E-11	0.432046	0.1000052	7.0447E-05	0.432046
-8.80047	6.88E-11	0.456588	0.1000056	7.09965E-05	0.456588
-8.60049	5.39E-11	0.481112	0.100005	7.1538E-05	0.481112
-8.40048	8.23E-11	0.505637	0.1000058	7.20784E-05	0.505637
-8.20048	9.01E-11	0.530147	0.1000053	7.26182E-05	0.530147
-8.00048	9.97E-11	0.55483	0.1000061	7.31564E-05	0.55483
-7.80049	1.066E-10	0.57936	0.1000056	7.36908E-05	0.57936
-7.60049	8.11E-11	0.627648	0.1000048	7.422E-05	0.627648
-7.40052	1.06E-10	0.652234	0.1000055	7.47539E-05	0.652234
-7.2005	1.041E-10	0.676757	0.1000053	7.52838E-05	0.676757
-7.0005	1.294E-10	0.701447	0.100005	7.58129E-05	0.701447
-6.80048	1.382E-10	0.726021	0.1000058	7.63406E-05	0.726021
-6.60051	1.34E-10	0.750538	0.1000054	7.68652E-05	0.750538
-6.40049	1.433E-10	0.775067	0.1000057	7.73894E-05	0.775067
-6.2005	1.627E-10	0.799583	0.100005	7.79102E-05	0.799583
-6.00051	1.546E-10	0.824113	0.1000051	7.84297E-05	0.824113
-5.8005	1.597E-10	0.848638	0.1000051	7.89469E-05	0.848638
-5.60048	1.675E-10	0.873187	0.1000053	7.94636E-05	0.873187
-5.4005	1.873E-10	0.897701	0.1000047	7.99781E-05	0.897701
-5.20048	1.775E-10	0.92225	0.1000045	8.04913E-05	0.92225
-5.00048	2.965E-10	0.946759	0.1000054	8.10028E-05	0.946759
-4.8005	2.282E-10	0.971306	0.1000052	8.15144E-05	0.971306
-4.60049	2.154E-10	0.995823	0.1000049	8.20224E-05	0.995823
-4.40048	1.992E-10	1.020338	0.1000054	8.25301E-05	1.020338
-4.20051	2.257E-10	1.044911	0.1000047	8.30368E-05	1.044911
-4.0005	2.223E-10	1.069434	0.1000055	8.35434E-05	1.069434
-3.80049	1.583E-10	1.128901	0.1000051	8.40419E-05	1.128901
-3.60048	2.1E-10	1.15343	0.100005	8.45478E-05	1.15343
-3.4005	2.185E-10	1.177951	0.100005	8.50494E-05	1.177951
-3.20049	-6.4E-11	1.202477	0.1000047	8.55509E-05	1.202477
-3.0005	2.168E-10	1.227052	0.100005	8.60526E-05	1.227052
-2.80051	2.382E-10	1.251597	0.1000043	8.65509E-05	1.251597
-2.60049	2.225E-10	1.276204	0.1000045	8.70501E-05	1.276204
-2.4005	2.338E-10	1.300715	0.1000041	8.75477E-05	1.300715
-2.2005	2.493E-10	1.325236	0.1000046	8.80441E-05	1.325236
-2.00048	2.49E-10	1.34974	0.1000048	8.85409E-05	1.34974
-1.80051	2.499E-10	1.374348	0.1000043	8.90369E-05	1.374348
-1.60049	2.568E-10	1.398876	0.1000051	8.95351E-05	1.398876
-1.40051	2.682E-10	1.423403	0.100004	9.00338E-05	1.423403
-1.20049	2.7E-10	1.447915	0.1000042	9.05422E-05	1.447915
-1.00052	2.595E-10	1.47247	0.1000046	9.10587E-05	1.47247
-0.80051	2.987E-10	1.496981	0.1000044	9.15849E-05	1.496981
-0.6005	2.773E-10	1.521511	0.1000047	9.21218E-05	1.521511
-0.40049	2.73E-10	1.546087	0.1000039	9.2667E-05	1.546087
-0.20049	3.043E-10	1.570625	0.100004	9.322E-05	1.570625
-0.00052	2.489E-10	1.630579	0.1000041	9.37726E-05	1.630579
0.1995	2.673E-10	1.655092	0.1000047	9.43389E-05	1.655092
0.39951	2.751E-10	1.679611	0.100004	9.49049E-05	1.679611
0.59951	3.072E-10	1.704269	0.1000029	9.54735E-05	1.704269
0.79948	2.958E-10	1.728852	0.100004	9.6045E-05	1.728852
0.99948	2.991E-10	1.753361	0.1000035	9.66156E-05	1.753361
1.19947	3.113E-10	1.777987	0.1000039	9.71899E-05	1.777987
1.39951	3.08E-10	1.802503	0.100004	9.77659E-05	1.802503
1.5995	3.225E-10	1.827033	0.1000037	9.8344E-05	1.827033
1.79949	3.286E-10	1.851546	0.1000035	9.89228E-05	1.851546
1.99952	3.321E-10	1.876074	0.1000034	9.95046E-05	1.876074
2.19949	3.348E-10	1.900596	0.1000036	0.0001000882	1.900596
2.39949	3.245E-10	1.925117	0.100003	0.0001006705	1.925117
2.5995	3.474E-10	1.949621	0.1000044	0.0001012558	1.949621
2.79951	3.487E-10	1.974174	0.1000042	0.0001018416	1.974174
2.99947	3.355E-10	1.998699	0.1000034	0.0001024255	1.998699
3.1995	3.534E-10	2.023236	0.1000037	0.0001030118	2.023236
3.39949	3.629E-10	2.047783	0.1000038	0.0001035975	2.047783
3.59952	3.521E-10	2.072328	0.1000034	0.000104182	2.072328
3.7995	2.858E-10	2.154582	0.0999997	0.000104836	2.154582
3.99947	3.138E-10	2.179114	0.0999999	0.000105421	2.179114
4.19948	3.396E-10	2.203636	0.0999999	0.000106003	2.203636
4.39949	3.594E-10	2.228191	0.1	0.000106581	2.228191
4.5995	3.54E-10	2.252716	0.1000001	0.000107159	2.252716
4.79948	3.477E-10	2.277232	0.1	0.000107734	2.277232
4.99949	3.757E-10	2.301752	0.1000001	0.000108305	2.301752
5.1995	3.667E-10	2.326258	0.1	0.000108874	2.326258
5.39949	4.589E-10	2.350784	0.0999998	0.00010944	2.350784
5.59951	4.16E-10	2.37536	0.1000003	0.000110004	2.37536
5.79951	3.901E-10	2.399891	0.1000001	0.000110562	2.399891
5.99948	3.989E-10	2.424427	0.0999998	0.00011112	2.424427
6.1995	3.987E-10	2.448942	0.1000001	0.000111672	2.448942
6.3995	4.043E-10	2.473479	0.0999998	0.000112223	2.473479
6.59951	4.067E-10	2.49799	0.1	0.00011277	2.49799
6.79952	3.939E-10	2.522511	0.0999998	0.000113314	2.522511
6.99951	4.162E-10	2.54704	0.0999999	0.000113853	2.54704
7.19949	4.145E-10	2.57158	0.1000001	0.000114389	2.57158
7.39949	3.434E-10	2.634927	0.1000001	0.000114918	2.634927
7.59951	3.79E-10	2.659473	0.0999997	0.000115452	2.659473
7.79949	3.902E-10	2.684032	0.1	0.000115979	2.684032
7.99949	2.814E-10	2.708485	0.1	0.000116504	2.708485
8.19947	3.899E-10	2.733079	0.1	0.000117026	2.733079
8.39948	3.976E-10	2.757614	0.0999999	0.000117543	2.757614
8.59949	4.155E-10	2.782136	0.1	0.000118059	2.782136
8.79949	4.109E-10	2.806659	0.1000001	0.000118572	2.806659
8.9995	4.109E-10	2.83117	0.1000001	0.000119079	2.83117
9.19949	4.193E-10	2.85569	0.0999998	0.000119587	2.85569
9.39949	4.29E-10	2.880298	0.1000001	0.000120096	2.880298
9.59948	4.291E-10	2.904814	0.1	0.000120599	2.904814
9.79951	4.184E-10	2.929323	0.1	0.000121103	2.929323
9.99949	4.564E-10	2.953838	0.1000001	0.000121603	2.953838
9.99948	3.712E-10	2.977294	0.0999999	0.000121602	2.977294
9.7995	2.741E-10	3.001798	0.1	0.000121102	3.001798
9.59949	2.632E-10	3.026306	0.1	0.0001206	3.026306
9.39948	2.216E-10	3.050869	0.1	0.000120098	3.050869
9.19951	1.872E-10	3.075385	0.1	0.000119593	3.075385
8.99949	2.133E-10	3.135136	0.1000001	0.000119084	3.135136
8.79953	1.657E-10	3.159666	0.0999998	0.000118569	3.159666
8.5995	1.362E-10	3.184206	0.0999999	0.000118048	3.184206
8.3995	1.244E-10	3.20873	0.0999999	0.000117524	3.20873
8.19952	1.219E-10	3.23332	0.1000002	0.000116994	3.23332
7.9995	9.59E-11	3.257835	0.1	0.000116467	3.257835
7.7995	7.37E-11	3.28237	0.1000002	0.000115931	3.28237
7.5995	8.6E-11	3.306893	0.0999999	0.000115394	3.306893
7.3995	6.33E-11	3.331417	0.0999999	0.000114855	3.331417
7.19948	4.83E-11	3.355928	0.1	0.000114314	3.355928
6.99951	4E-11	3.380548	0.0999999	0.000113768	3.380548
6.79952	4.03E-11	3.405065	0.1000001	0.00011322	3.405065
6.59951	2.69E-11	3.429601	0.0999999	0.00011267	3.429601
6.39948	8.2E-12	3.454108	0.1	0.000112116	3.454108
6.19951	1.43E-11	3.478666	0.1	0.00011156	3.478666
5.9995	-1.7E-12	3.50319	0.1	0.000110999	3.50319
5.79952	-1.45E-11	3.527731	0.1	0.000110438	3.527731
5.59953	-7.1E-12	3.552298	0.0999999	0.000109874	3.552298
5.39949	-1.6E-11	3.576813	0.1	0.000109305	3.576813
5.19949	3.43E-11	3.632582	0.0999999	0.000108734	3.632582
4.99951	-1.58E-11	3.657115	0.0999999	0.000108161	3.657115
4.7995	-4.11E-11	3.681636	0.1000001	0.000107582	3.681636
4.59953	-3.25E-11	3.706155	0.0999999	0.000107002	3.706155
4.3995	-3.86E-11	3.730815	0.0999999	0.000106422	3.730815
4.19949	-5.61E-11	3.75534	0.1000001	0.000105837	3.75534
3.99951	1E-13	3.779869	0.0999999	0.000105252	3.779869
3.7995	-5E-11	3.804391	0.0999998	0.000104665	3.804391
3.59951	-5.7E-11	3.828916	0.0999998	0.000104078	3.828916
3.39951	-7.5E-11	3.853429	0.0999999	0.000103489	3.853429
3.1995	-7.29E-11	3.87795	0.0999999	0.000102899	3.87795
2.99947	-8.45E-11	3.902407	0.1	0.00010231	3.902407
2.79951	-9.56E-11	3.926933	0.1	0.000101723	3.926933
2.59952	-9.72E-11	3.951447	0.0999998	0.000101135	3.951447
2.39953	-9.49E-11	3.975998	0.0999999	0.000100549	3.975998
2.19951	-1.087E-10	4.000523	0.0999998	9.9962E-05	4.000523
1.99951	-1.179E-10	4.025047	0.1	9.9376E-05	4.025047
1.7995	-1.084E-10	4.049855	0.1000002	9.8792E-05	4.049855
1.5995	-1.188E-10	4.074389	0.1	9.8211E-05	4.074389
1.3995	-1.961E-10	4.1225	0.1000001	9.7635E-05	4.1225
1.1995	-1.311E-10	4.147078	0.1	9.7055E-05	4.147078
0.99951	-1.374E-10	4.17169	0.0999998	9.6479E-05	4.17169
0.7995	-1.57E-10	4.196228	0.0999999	9.5905E-05	4.196228
0.59951	-1.261E-10	4.222435	0.1	9.5332E-05	4.222435
0.39952	-1.473E-10	4.246951	0.1	9.4763E-05	4.246951
0.1995	-1.589E-10	4.271475	0.1	9.4195E-05	4.271475
-0.00049	-1.727E-10	4.295979	0.1000001	9.3631E-05	4.295979
-0.2005	-1.601E-10	4.320519	0.0999998	9.3073E-05	4.320519
-0.40049	-1.7E-10	4.345033	0.0999998	9.2523E-05	4.345033
-0.60049	-1.876E-10	4.369572	0.0999999	9.1979E-05	4.369572
-0.80049	-1.916E-10	4.394192	0.0999999	9.1449E-05	4.394192
-1.00049	-1.726E-10	4.418733	0.1000001	9.0931E-05	4.418733
-1.20048	-1.947E-10	4.44326	0.1000001	9.0421E-05	4.44326
-1.40048	-2.089E-10	4.467782	0.0999999	8.9919E-05	4.467782
-1.6005	-1.874E-10	4.492298	0.1000001	8.9422E-05	4.492298
-1.80051	-2.048E-10	4.516831	0.0999998	8.8926E-05	4.516831
-2.00048	-2.188E-10	4.541365	0.1	8.8431E-05	4.541365
-2.2005	-2.133E-10	4.565935	0.0999999	8.7934E-05	4.565935
-2.4005	-2.092E-10	4.593792	0.1000049	8.73562E-05	4.593792
-2.60048	-1.859E-10	4.640493	0.1000052	8.68628E-05	4.640493
-2.80049	-2.031E-10	4.665018	0.1000051	8.63647E-05	4.665018
-3.00049	-2.075E-10	4.68954	0.1000041	8.58638E-05	4.68954
-3.20051	-2.245E-10	4.714158	0.1000044	8.53641E-05	4.714158
-3.4005	-2.389E-10	4.738732	0.1000046	8.48634E-05	4.738732
-3.60047	-2.136E-10	4.763255	0.1000045	8.43618E-05	4.763255
-3.80046	-2.437E-10	4.787781	0.1000045	8.38581E-05	4.787781
-4.00047	-2.442E-10	4.812258	0.1000044	8.33541E-05	4.812258
-4.20049	-2.475E-10	4.836756	0.1000052	8.28501E-05	4.836756
-4.40049	-2.606E-10	4.861274	0.1000048	8.23423E-05	4.861274
-4.60049	-2.517E-10	4.885788	0.1000051	8.18346E-05	4.885788
-4.80048	-2.617E-10	4.910299	0.1000051	8.13247E-05	4.910299
-5.00047	-2.609E-10	4.934816	0.1000041	8.08139E-05	4.934816
-5.20048	-2.643E-10	4.959323	0.1000055	8.03028E-05	4.959323
-5.40049	-2.818E-10	4.983876	0.1000056	7.97875E-05	4.983876
-5.60048	-2.557E-10	5.00838	0.1000048	7.92719E-05	5.00838
-5.80048	-2.736E-10	5.03292	0.1000048	7.87541E-05	5.03292
-6.00049	-2.919E-10	5.057497	0.1000044	7.8235E-05	5.057497
-6.20048	-2.788E-10	5.082041	0.1000054	7.77142E-05	5.082041
-6.40049	-2.147E-10	5.144801	0.1000042	7.71934E-05	5.144801
-6.60047	-1.711E-10	5.169331	0.1000056	7.66676E-05	5.169331
-6.80049	-2.46E-10	5.193843	0.1000053	7.61417E-05	5.193843
-7.00049	-2.701E-10	5.218377	0.1000057	7.56127E-05	5.218377
-7.20048	-2.657E-10	5.242955	0.100005	7.50814E-05	5.242955
-7.40047	-2.789E-10	5.267549	0.1000056	7.45494E-05	5.267549
-7.6005	-2.911E-10	5.292062	0.1000053	7.40144E-05	5.292062
-7.80048	-2.926E-10	5.316671	0.1000059	7.34783E-05	5.316671
-8.00047	-2.892E-10	5.341191	0.100006	7.29393E-05	5.341191
-8.20048	-3.024E-10	5.36572	0.1000061	7.23992E-05	5.36572
-8.40049	-3.124E-10	5.390341	0.1000058	7.18559E-05	5.390341
-8.60047	-2.944E-10	5.41487	0.1000059	7.13109E-05	5.41487
-8.80048	-3.14E-10	5.439411	0.1000055	7.07646E-05	5.439411
-9.00049	-3.247E-10	5.463926	0.1000053	7.02143E-05	5.463926
-9.20048	-3.156E-10	5.488486	0.1000064	6.96651E-05	5.488486
-9.40049	-3.211E-10	5.513001	0.1000066	6.91109E-05	5.513001
-9.60049	-3.317E-10	5.537546	0.1000062	6.85571E-05	5.537546
-9.80048	-4.346E-10	5.562117	0.1000053	6.80027E-05	5.562117
-10.00047	-4.277E-10	5.586644	0.1000061	6.74451E-05	5.586644
-10.20042	-3.006E-10	5.6436	0.1000081	6.68951E-05	5.6436
-10.40042	-3.169E-10	5.668125	0.100008	6.63343E-05	5.668125
-10.60043	-3.403E-10	5.692641	0.1000079	6.5771E-05	5.692641
-10.80043	-3.474E-10	5.717148	0.1000082	6.52049E-05	5.717148
-11.00043	-3.353E-10	5.741708	0.1000091	6.46382E-05	5.741708
-11.20046	-3.512E-10	5.766221	0.1000072	6.40675E-05	5.766221
-11.40043	-3.545E-10	5.790734	0.1000083	6.34954E-05	5.790734
-11.60044	-3.544E-10	5.815249	0.1000072	6.29195E-05	5.815249
-11.80044	-3.556E-10	5.839766	0.1000086	6.23436E-05	5.839766
-12.00041	-3.724E-10	5.864304	0.100009	6.17654E-05	5.864304
#scan	iMeasureCycle=2	iMux=0	time=279.734	N=222	LocalTime=22/06/2023 05:19:30
#VGate(V)	IGate(A)	time(s)	VDrain(V)	IDrain(A)	time(s)
-12.00047	-7.06E-11	279.741495	0.1000056	6.17893E-05	279.741495
-11.80048	-2.42E-11	279.76635	0.1000055	6.23717E-05	279.76635
-11.60051	-6.1E-12	279.791958	0.1000062	6.29507E-05	279.791958
-11.4005	2.008E-10	279.81651	0.100007	6.35288E-05	279.81651
-11.2005	6.11E-11	279.841035	0.100007	6.41034E-05	279.841035
-11.00048	5.92E-11	279.865581	0.1000065	6.46769E-05	279.865581
-10.80048	7.05E-11	279.890092	0.1000059	6.52465E-05	279.890092
-10.60049	8.43E-11	279.914643	0.1000066	6.58151E-05	279.914643
-10.40047	1.084E-10	279.939157	0.1000059	6.63815E-05	279.939157
-10.2005	8.96E-11	279.963688	0.1000058	6.69446E-05	279.963688
-10.00049	1.058E-10	279.988217	0.1000055	6.75065E-05	279.988217
-9.8005	1.127E-10	280.012855	0.1000056	6.80682E-05	280.012855
-9.60051	1.211E-10	280.037378	0.1000058	6.86266E-05	280.037378
-9.4005	1.245E-10	280.06192	0.1000059	6.91848E-05	280.06192
-9.20048	1.332E-10	280.08644	0.1000051	6.97369E-05	280.08644
-9.00048	1.281E-10	280.110953	0.1000061	7.02867E-05	280.110953
-8.80049	1.42E-10	280.135465	0.100006	7.08345E-05	280.135465
-8.60049	1.618E-10	280.160076	0.100005	7.13768E-05	280.160076
-8.40049	8.13E-11	280.184597	0.100005	7.19189E-05	280.184597
-8.2005	1.085E-10	280.209127	0.1000051	7.2459E-05	280.209127
-8.00051	1.492E-10	280.233637	0.1000055	7.2998E-05	280.233637
-7.80048	1.765E-10	280.258158	0.1000052	7.35321E-05	280.258158
-7.6005	1.22E-10	280.304702	0.1000053	7.40654E-05	280.304702
-7.4005	1.34E-10	280.329305	0.1000058	7.45989E-05	280.329305
-7.2005	1.579E-10	280.353829	0.1000052	7.513E-05	280.353829
-7.0005	1.734E-10	280.378347	0.1000057	7.56608E-05	280.378347
-6.80047	1.793E-10	280.402924	0.1000043	7.6187E-05	280.402924
-6.6005	1.606E-10	280.42746	0.1000043	7.67145E-05	280.42746
-6.40049	1.884E-10	280.451965	0.1000055	7.72388E-05	280.451965
-6.20051	2.031E-10	280.476497	0.1000055	7.77615E-05	280.476497
-6.00051	1.898E-10	280.501071	0.1000044	7.82816E-05	280.501071
-5.8005	1.928E-10	280.525585	0.100005	7.88014E-05	280.525585
-5.60048	2.081E-10	280.550114	0.1000048	7.93191E-05	280.550114
-5.40052	2.175E-10	280.574632	0.1000044	7.9834E-05	280.574632
-5.20049	2.21E-10	280.599158	0.1000047	8.0349E-05	280.599158
-5.00052	2.052E-10	280.623666	0.1000047	8.08608E-05	280.623666
-4.80052	2.174E-10	280.64819	0.1000052	8.13723E-05	280.64819
-4.6005	2.209E-10	280.672781	0.1000052	8.18811E-05	280.672781
-4.40052	2.309E-10	280.697305	0.1000048	8.23906E-05	280.697305
-4.2005	2.38E-10	280.721825	0.1000053	8.28977E-05	280.721825
-4.00049	2.299E-10	280.746342	0.1000047	8.34013E-05	280.746342
-3.80052	1.734E-10	280.806308	0.100005	8.39031E-05	280.806308
-3.60048	2.102E-10	280.830893	0.1000045	8.44067E-05	280.830893
-3.4005	2.311E-10	280.855414	0.1000046	8.49107E-05	280.855414
-3.2005	2.377E-10	280.879931	0.100005	8.54118E-05	280.879931
-3.0005	2.291E-10	280.90453	0.1000048	8.59128E-05	280.90453
-2.80049	2.498E-10	280.929053	0.1000044	8.64128E-05	280.929053
-2.60051	2.541E-10	280.953568	0.1000045	8.69117E-05	280.953568
-2.40051	2.549E-10	280.978083	0.1000047	8.74099E-05	280.978083
-2.20051	2.66E-10	281.002673	0.100004	8.79063E-05	281.002673
-2.00052	2.507E-10	281.027196	0.100004	8.8404E-05	281.027196
-1.80051	2.666E-10	281.051729	0.1000049	8.89009E-05	281.051729
-1.60048	2.655E-10	281.076238	0.1000046	8.93968E-05	281.076238
-1.4005	2.804E-10	281.100766	0.1000045	8.98987E-05	281.100766
-1.20051	2.673E-10	281.125278	0.1000047	9.04064E-05	281.125278
-1.00051	2.645E-10	281.149806	0.1000045	9.09208E-05	281.149806
-0.80051	2.888E-10	281.174392	0.1000045	9.14479E-05	281.174392
-0.6005	3.028E-10	281.198985	0.1000041	9.19836E-05	281.198985
-0.40051	3.962E-10	281.223508	0.1000049	9.25299E-05	281.223508
-0.2005	3.024E-10	281.248037	0.1000055	9.3084E-05	281.248037
-0.0005	2.358E-10	281.307841	0.100004	9.36382E-05	281.307841
0.19949	2.873E-10	281.332356	0.1000049	9.42041E-05	281.332356
0.3995	2.972E-10	281.356868	0.1000046	9.47728E-05	281.356868
0.59952	3.091E-10	281.381453	0.1000047	9.53427E-05	281.381453
0.79949	3.031E-10	281.40605	0.1000051	9.59134E-05	281.40605
0.99949	2.965E-10	281.430588	0.1000034	9.64866E-05	281.430588
1.19948	3.299E-10	281.455126	0.1000048	9.70614E-05	281.455126
1.3995	3.275E-10	281.479606	0.1000045	9.76364E-05	281.479606
1.59951	3.088E-10	281.504181	0.1000046	9.82159E-05	281.504181
1.79949	3.096E-10	281.52869	0.1000037	9.87953E-05	281.52869
1.99951	3.36E-10	281.553225	0.1000041	9.93788E-05	281.553225
2.19949	3.393E-10	281.577739	0.100004	9.99614E-05	281.577739
2.39949	3.241E-10	281.602265	0.1000043	0.0001005475	281.602265
2.5995	3.257E-10	281.626783	0.1000042	0.0001011329	281.626783
2.79949	3.43E-10	281.651306	0.1000041	0.0001017172	281.651306
2.99949	3.43E-10	281.675823	0.1000036	0.0001023024	281.675823
3.19948	1.189E-10	281.700381	0.1000032	0.000102889	281.700381
3.3995	3.362E-10	281.724883	0.1000031	0.000103476	281.724883
3.5995	3.341E-10	281.749428	0.1000036	0.0001040609	281.749428
3.79948	2.73E-10	281.809501	0.1000036	0.000104639	281.809501
3.99949	2.976E-10	281.839122	0.1	0.000105303	281.839122
4.1995	3.29E-10	281.863662	0.0999999	0.000105885	281.863662
4.3995	3.345E-10	281.888185	0.1000001	0.000106466	281.888185
4.59948	3.482E-10	281.912774	0.0999999	0.000107047	281.912774
4.79947	3.576E-10	281.937292	0.0999998	0.000107621	281.937292
4.99949	3.614E-10	281.96182	0.1	0.000108192	281.96182
5.19948	3.668E-10	281.986317	0.1	0.000108763	281.986317
5.39949	3.577E-10	282.011077	0.1000001	0.000109331	282.011077
5.5995	3.576E-10	282.03562	0.1	0.000109894	282.03562
5.7995	3.949E-10	282.060131	0.1	0.000110456	282.060131
5.99948	3.678E-10	282.084759	0.1000001	0.000111014	282.084759
6.19949	3.654E-10	282.109276	0.1000001	0.000111567	282.109276
6.39948	3.85E-10	282.133806	0.0999998	0.000112119	282.133806
6.59948	3.923E-10	282.158415	0.1	0.000112667	282.158415
6.79948	3.879E-10	282.18296	0.1	0.000113209	282.18296
6.9995	3.742E-10	282.207474	0.1	0.000113751	282.207474
7.19948	4.005E-10	282.232005	0.0999999	0.000114291	282.232005
7.3995	4.122E-10	282.256518	0.0999998	0.000114826	282.256518
7.5995	3.567E-10	282.314128	0.0999998	0.000115353	282.314128
7.79949	3.903E-10	282.338645	0.1	0.000115882	282.338645
7.99949	3.76E-10	282.363173	0.1	0.000116409	282.363173
8.19946	3.872E-10	282.387679	0.1	0.000116931	282.387679
8.39949	4.059E-10	282.412504	0.1	0.000117451	282.412504
8.59949	4.1E-10	282.437035	0.1	0.000117966	282.437035
8.79951	4.019E-10	282.461541	0.1000005	0.000118481	282.461541
8.99949	4.088E-10	282.486072	0.1	0.000118989	282.486072
9.19949	4.2E-10	282.510626	0.0999998	0.000119494	282.510626
9.39949	4.11E-10	282.53515	0.0999997	0.000120006	282.53515
9.59948	4.229E-10	282.559653	0.1000001	0.000120513	282.559653
9.7995	4.301E-10	282.584176	0.0999998	0.000121016	282.584176
9.99948	4.104E-10	282.608696	0.1	0.000121518	282.608696
9.99947	4.952E-10	282.632037	0.0999999	0.000121517	282.632037
9.7995	3.324E-10	282.656547	0.1000001	0.000121018	282.656547
9.59951	2.539E-10	282.681051	0.1000001	0.000120516	282.681051
9.39951	2.149E-10	282.705623	0.1000001	0.000120013	282.705623
9.19951	2.051E-10	282.730146	0.1000001	0.000119506	282.730146
8.9995	1.764E-10	282.754658	0.0999999	0.000118997	282.754658
8.79952	2.009E-10	282.813074	0.1	0.000118482	282.813074
8.5995	1.635E-10	282.837651	0.1	0.000117962	282.837651
8.39951	1.258E-10	282.862175	0.1000002	0.000117437	282.862175
8.19952	9.94E-11	282.886734	0.1	0.000116907	282.886734
7.99949	1.163E-10	282.911407	0.0999998	0.000116377	282.911407
7.79949	9.96E-11	282.935931	0.0999999	0.000115843	282.935931
7.59951	7.03E-11	282.960435	0.1000003	0.000115306	282.960435
7.39951	7E-11	282.984958	0.1000002	0.000114766	282.984958
7.19949	5.85E-11	283.009554	0.1	0.000114223	283.009554
6.99949	4.54E-11	283.034097	0.1000002	0.000113677	283.034097
6.79951	3E-12	283.05862	0.1	0.000113133	283.05862
6.59951	4.5E-12	283.083131	0.0999999	0.000112583	283.083131
6.3995	7.3E-12	283.107667	0.1	0.000112029	283.107667
6.1995	-2.6E-12	283.132182	0.1000001	0.000111473	283.132182
5.99951	1.3E-11	283.156732	0.1	0.000110911	283.156732
5.79949	4.2E-12	283.181296	0.0999999	0.00011035	283.181296
5.59951	-2.41E-11	283.20584	0.1000001	0.000109783	283.20584
5.39951	-3.24E-11	283.230342	0.0999999	0.000109214	283.230342
5.19949	-8.9E-12	283.254857	0.1	0.000108643	283.254857
4.99947	2.3E-11	283.314357	0.0999998	0.00010807	283.314357
4.79949	-2.39E-11	283.33887	0.0999998	0.000107493	283.33887
4.59951	-2.62E-11	283.363372	0.1	0.000106913	283.363372
4.3995	-4.9E-11	283.387877	0.1000001	0.00010633	283.387877
4.19949	-5.04E-11	283.412489	0.1	0.000105747	283.412489
3.9995	-4.32E-11	283.437032	0.1000001	0.000105161	283.437032
3.79952	-6.39E-11	283.461595	0.1000001	0.000104574	283.461595
3.59951	-8.64E-11	283.48612	0.1000001	0.000103987	283.48612
3.39949	-8.2E-11	283.510687	0.1000002	0.000103399	283.510687
3.19951	-7.15E-11	283.535231	0.1	0.00010281	283.535231
2.9995	-8.96E-11	283.559749	0.0999999	0.000102219	283.559749
2.79949	-1.055E-10	283.584285	0.1	0.000101631	283.584285
2.59952	-9.1E-11	283.608805	0.1000002	0.000101042	283.608805
2.3995	-9.76E-11	283.633342	0.1000001	0.000100456	283.633342
2.19951	-1.076E-10	283.657848	0.0999998	9.9867E-05	283.657848
1.99951	-1.274E-10	283.682389	0.0999999	9.9282E-05	283.682389
1.7995	-1.135E-10	283.70691	0.1	9.8699E-05	283.70691
1.59952	-1.313E-10	283.731458	0.1000001	9.8115E-05	283.731458
1.39951	-1.324E-10	283.755966	0.1000001	9.7537E-05	283.755966
1.19949	-6.5E-11	283.81594	0.0999999	9.6963E-05	283.81594
0.99951	-1.176E-10	283.840556	0.1000001	9.6386E-05	283.840556
0.7995	-1.374E-10	283.865085	0.1000001	9.5813E-05	283.865085
0.59951	-1.443E-10	283.889615	0.0999999	9.5238E-05	283.889615
0.39951	-1.331E-10	283.914245	0.0999999	9.4669E-05	283.914245
0.19951	-1.452E-10	283.938779	0.1	9.41E-05	283.938779
-0.00048	-1.648E-10	283.963272	0.1000001	9.3536E-05	283.963272
-0.20051	-1.627E-10	283.9878	0.0999999	9.2976E-05	283.9878
-0.40049	-1.67E-10	284.012408	0.1000001	9.2426E-05	284.012408
-0.60049	-1.54E-11	284.036948	0.1	9.1886E-05	284.036948
-0.8005	-1.39E-10	284.061463	0.0999998	9.1355E-05	284.061463
-1.00051	-1.678E-10	284.085992	0.1	9.0837E-05	284.085992
-1.20048	-1.747E-10	284.110607	0.0999998	9.0326E-05	284.110607
-1.40049	-1.869E-10	284.135138	0.0999998	8.9825E-05	284.135138
-1.60049	-1.802E-10	284.159686	0.0999997	8.9328E-05	284.159686
-1.80049	-1.687E-10	284.187577	0.1000053	8.87518E-05	284.187577
-2.00051	-1.93E-10	284.21217	0.1000054	8.82559E-05	284.21217
-2.2005	-1.836E-10	284.236711	0.1000052	8.77614E-05	284.236711
-2.40052	-2.072E-10	284.26124	0.1000042	8.72636E-05	284.26124
-2.60049	-1.439E-10	284.32039	0.100005	8.67698E-05	284.32039
-2.8005	-2.03E-10	284.344901	0.1000044	8.62699E-05	284.344901
-3.00046	-1.933E-10	284.369463	0.1000058	8.57726E-05	284.369463
-3.20049	-1.988E-10	284.393995	0.1000045	8.52716E-05	284.393995
-3.40048	-2.094E-10	284.41873	0.1000055	8.47707E-05	284.41873
-3.6005	-2.264E-10	284.443286	0.100005	8.42698E-05	284.443286
-3.8005	-3.297E-10	284.467799	0.1000045	8.37664E-05	284.467799
-4.00049	-2.49E-10	284.492345	0.100005	8.32613E-05	284.492345
-4.20052	-2.275E-10	284.516902	0.1000054	8.27565E-05	284.516902
-4.40049	-2.446E-10	284.541427	0.1000055	8.22502E-05	284.541427
-4.60049	-2.498E-10	284.56594	0.1000049	8.17421E-05	284.56594
-4.80048	-2.485E-10	284.590464	0.1000044	8.12327E-05	284.590464
-5.0005	-2.584E-10	284.614977	0.1000053	8.07217E-05	284.614977
-5.20051	-2.331E-10	284.6395	0.1000044	8.02095E-05	284.6395
-5.40048	-2.582E-10	284.664019	0.100005	7.96948E-05	284.664019
-5.60049	-2.781E-10	284.68853	0.1000055	7.91793E-05	284.68853
-5.8005	-2.46E-10	284.713042	0.1000051	7.86628E-05	284.713042
-6.00049	-2.483E-10	284.737579	0.100005	7.81428E-05	284.737579
-6.20049	-2.81E-10	284.762091	0.1000054	7.76219E-05	284.762091
-6.40049	-2.162E-10	284.819628	0.1000057	7.71012E-05	284.819628
-6.6005	-2.469E-10	284.844229	0.1000053	7.65754E-05	284.844229
-6.80049	-2.757E-10	284.868777	0.1000049	7.60479E-05	284.868777
-7.0005	-2.542E-10	284.893278	0.1000052	7.55183E-05	284.893278
-7.20048	-2.57E-10	284.917856	0.1000053	7.49882E-05	284.917856
-7.40049	-2.918E-10	284.942377	0.1000051	7.44553E-05	284.942377
-7.60049	-2.838E-10	284.966888	0.1000053	7.39201E-05	284.966888
-7.80049	-2.735E-10	284.991394	0.1000046	7.33832E-05	284.991394
-8.00049	-2.873E-10	285.01597	0.1000053	7.28443E-05	285.01597
-8.20047	-2.957E-10	285.04048	0.1000052	7.23034E-05	285.04048
-8.40048	-2.861E-10	285.065004	0.1000057	7.17595E-05	285.065004
-8.60048	-3.043E-10	285.089517	0.1000061	7.12159E-05	285.089517
-8.8005	-2.934E-10	285.11404	0.100006	7.0669E-05	285.11404
-9.00049	-2.918E-10	285.138561	0.1000046	7.01173E-05	285.138561
-9.20049	-3E-10	285.163215	0.1000057	6.95685E-05	285.163215
-9.4005	-3.197E-10	285.18777	0.1000057	6.90146E-05	285.18777
-9.60049	-3.217E-10	285.212281	0.1000057	6.84611E-05	285.212281
-9.80046	-2.883E-10	285.236898	0.100006	6.79066E-05	285.236898
-10.00048	-3.198E-10	285.261409	0.1000059	6.73487E-05	285.261409
-10.20051	-2.676E-10	285.320845	0.1000054	6.67972E-05	285.320845
-10.40049	-3.012E-10	285.345369	0.1000063	6.62366E-05	285.345369
-10.60049	-3.035E-10	285.369898	0.1000052	6.56733E-05	285.369898
-10.80049	-3.237E-10	285.394407	0.1000051	6.51064E-05	285.394407
-11.00048	-3.176E-10	285.41894	0.100007	6.45404E-05	285.41894
-11.20049	-3.032E-10	285.443472	0.1000067	6.39701E-05	285.443472
-11.40049	-3.04E-10	285.468087	0.1000068	6.33971E-05	285.468087
-11.60049	-3.253E-10	285.492596	0.1000053	6.28221E-05	285.492596
-11.80049	-3.092E-10	285.51717	0.1000051	6.22453E-05	285.51717
-12.00049	-3.401E-10	285.541694	0.1000062	6.16682E-05	285.541694
#scan	iMeasureCycle=3	iMux=0	time=319.754	N=222	LocalTime=22/06/2023 05:20:10
#VGate(V)	IGate(A)	time(s)	VDrain(V)	IDrain(A)	time(s)
-12.00047	-6.87E-11	319.761545	0.1000054	6.17961E-05	319.761545
-11.8005	-2.09E-11	319.786421	0.1000057	6.23781E-05	319.786421
-11.60051	2.8E-12	319.812331	0.100006	6.2957E-05	319.812331
-11.40049	2.87E-11	319.836857	0.1000062	6.35337E-05	319.836857
-11.20049	3.46E-11	319.86145	0.1000062	6.41086E-05	319.86145
-11.00047	5.72E-11	319.885953	0.1000059	6.46808E-05	319.885953
-10.80049	5.61E-11	319.91048	0.1000067	6.52507E-05	319.91048
-10.60048	7.33E-11	319.934997	0.1000068	6.5819E-05	319.934997
-10.40049	8.36E-11	319.959522	0.1000043	6.63837E-05	319.959522
-10.2005	7.81E-11	319.984265	0.1000055	6.69493E-05	319.984265
-10.00048	9.67E-11	320.008954	0.1000064	6.75119E-05	320.008954
-9.80048	1.157E-10	320.033485	0.1000063	6.8073E-05	320.033485
-9.6005	9.97E-11	320.058082	0.1000055	6.86305E-05	320.058082
-9.40049	1.125E-10	320.082611	0.1000057	6.91878E-05	320.082611
-9.20049	1.305E-10	320.107132	0.1000064	6.97421E-05	320.107132
-9.00047	1.279E-10	320.131653	0.1000058	7.02899E-05	320.131653
-8.80049	1.313E-10	320.156182	0.1000063	7.08392E-05	320.156182
-8.60049	1.361E-10	320.180694	0.1000056	7.13817E-05	320.180694
-8.40049	1.601E-10	320.205234	0.1000042	7.19215E-05	320.205234
-8.2005	1.502E-10	320.229801	0.1000053	7.24628E-05	320.229801
-8.0005	1.426E-10	320.25434	0.1000047	7.29999E-05	320.25434
-7.80049	1.701E-10	320.278867	0.1000054	7.35369E-05	320.278867
-7.60049	1.157E-10	320.324997	0.1000052	7.40682E-05	320.324997
-7.4005	1.682E-10	320.349541	0.1000059	7.46027E-05	320.349541
-7.2005	1.604E-10	320.374074	0.1000053	7.51334E-05	320.374074
-7.0005	1.634E-10	320.398597	0.1000056	7.56631E-05	320.398597
-6.80047	1.808E-10	320.423168	0.1000044	7.61916E-05	320.423168
-6.6005	1.775E-10	320.447703	0.1000056	7.67165E-05	320.447703
-6.40051	1.872E-10	320.472217	0.1000053	7.72417E-05	320.472217
-6.20049	1.912E-10	320.49677	0.1000053	7.7764E-05	320.49677
-6.00052	1.949E-10	320.521289	0.1000053	7.82836E-05	320.521289
-5.80047	1.934E-10	320.545816	0.1000055	7.8804E-05	320.545816
-5.6005	1.973E-10	320.570344	0.1000047	7.93196E-05	320.570344
-5.4005	2.125E-10	320.594872	0.1000047	7.98349E-05	320.594872
-5.2005	2.098E-10	320.619388	0.1000056	8.03488E-05	320.619388
-5.0005	2.086E-10	320.643916	0.1000053	8.08614E-05	320.643916
-4.80049	2.25E-10	320.668448	0.1000051	8.13727E-05	320.668448
-4.60049	4.177E-10	320.69306	0.1000056	8.18809E-05	320.69306
-4.40051	2.462E-10	320.717568	0.1000054	8.23891E-05	320.717568
-4.2005	2.445E-10	320.7421	0.1000053	8.28958E-05	320.7421
-4.00051	2.463E-10	320.766611	0.1000054	8.34008E-05	320.766611
-3.8005	1.951E-10	320.822398	0.1000044	8.39012E-05	320.822398
-3.60051	2.211E-10	320.846921	0.1000052	8.4406E-05	320.846921
-3.40051	2.37E-10	320.871444	0.1000052	8.49079E-05	320.871444
-3.20051	1.755E-10	320.896062	0.1000048	8.54079E-05	320.896062
-3.00049	2.395E-10	320.920632	0.1000053	8.59092E-05	320.920632
-2.80051	2.386E-10	320.94517	0.1000032	8.64082E-05	320.94517
-2.60052	2.34E-10	320.969685	0.1000046	8.69069E-05	320.969685
-2.40052	2.576E-10	320.994247	0.1000044	8.74042E-05	320.994247
-2.2005	2.65E-10	321.018767	0.1000054	8.79008E-05	321.018767
-2.00048	2.521E-10	321.043296	0.1000054	8.83981E-05	321.043296
-1.80051	2.703E-10	321.067858	0.1000042	8.88936E-05	321.067858
-1.60049	2.746E-10	321.092399	0.1000045	8.93902E-05	321.092399
-1.40051	2.681E-10	321.116924	0.1000042	8.98924E-05	321.116924
-1.2005	2.691E-10	321.141466	0.1000043	9.03991E-05	321.141466
-1.0005	2.84E-10	321.165981	0.100004	9.09124E-05	321.165981
-0.80053	2.864E-10	321.19052	0.1000046	9.14382E-05	321.19052
-0.6005	2.822E-10	321.215023	0.1000044	9.19729E-05	321.215023
-0.40051	2.859E-10	321.239672	0.100004	9.25191E-05	321.239672
-0.2005	2.997E-10	321.264194	0.1000039	9.30729E-05	321.264194
-0.0005	2.278E-10	321.312838	0.1000044	9.36276E-05	321.312838
0.19949	2.995E-10	321.337425	0.1000046	9.41942E-05	321.337425
0.3995	2.869E-10	321.361943	0.1000037	9.47616E-05	321.361943
0.59949	2.864E-10	321.386471	0.1000047	9.53325E-05	321.386471
0.7995	2.796E-10	321.41286	0.1000051	9.59039E-05	321.41286
0.9995	3.131E-10	321.43738	0.1000037	9.64745E-05	321.43738
1.19949	2.999E-10	321.461915	0.1000034	9.7051E-05	321.461915
1.39949	3.142E-10	321.486456	0.1000039	9.76279E-05	321.486456
1.59951	3.151E-10	321.510974	0.1000046	9.82059E-05	321.510974
1.79951	3.362E-10	321.535473	0.1000039	9.87857E-05	321.535473
1.99948	3.189E-10	321.559974	0.1000039	9.93676E-05	321.559974
2.19949	3.165E-10	321.584543	0.1000034	9.99519E-05	321.584543
2.39949	3.475E-10	321.60906	0.1000037	0.0001005362	321.60906
2.59948	3.347E-10	321.633582	0.100003	0.0001011217	321.633582
2.79947	3.283E-10	321.658088	0.1000036	0.0001017076	321.658088
2.9995	3.468E-10	321.682623	0.1000039	0.000102293	321.682623
3.1995	3.561E-10	321.707145	0.1000033	0.0001028794	321.707145
3.39948	3.42E-10	321.731656	0.1000041	0.0001034668	321.731656
3.59949	3.521E-10	321.756169	0.1000032	0.0001040528	321.756169
3.79949	3.508E-10	321.780677	0.100004	0.0001046366	321.780677
3.99949	3.02E-10	321.835412	0.1	0.000105293	321.835412
4.19949	3.358E-10	321.859937	0.1	0.000105876	321.859937
4.39948	3.367E-10	321.884442	0.0999999	0.000106457	321.884442
4.5995	3.534E-10	321.909066	0.1	0.000107036	321.909066
4.79952	3.687E-10	321.933632	0.1000002	0.000107611	321.933632
4.99948	3.574E-10	321.958156	0.1000001	0.000108182	321.958156
5.19949	3.508E-10	321.98269	0.1000001	0.000108755	321.98269
5.39949	3.843E-10	322.007228	0.0999999	0.000109321	322.007228
5.5995	3.697E-10	322.031832	0.1	0.000109885	322.031832
5.79949	3.621E-10	322.056371	0.1000001	0.000110445	322.056371
5.99948	3.816E-10	322.080937	0.0999997	0.000111003	322.080937
6.1995	5.122E-10	322.105483	0.1	0.000111557	322.105483
6.39948	4.118E-10	322.129992	0.1	0.000112109	322.129992
6.59949	3.942E-10	322.154519	0.1	0.000112658	322.154519
6.79948	3.976E-10	322.179028	0.1	0.000113203	322.179028
6.99951	3.996E-10	322.203572	0.1000002	0.000113747	322.203572
7.19951	3.929E-10	322.228099	0.1	0.000114283	322.228099
7.39951	4.029E-10	322.25263	0.1	0.000114819	322.25263
7.59951	4.097E-10	322.277231	0.0999999	0.000115351	322.277231
7.79948	3.431E-10	322.334245	0.0999998	0.000115874	322.334245
7.99948	3.83E-10	322.358787	0.0999999	0.000116401	322.358787
8.1995	3.769E-10	322.383305	0.0999999	0.000116925	322.383305
8.3995	3.944E-10	322.407847	0.1	0.000117445	322.407847
8.59949	4.094E-10	322.432417	0.1	0.000117961	322.432417
8.79949	4.025E-10	322.456954	0.0999999	0.000118473	322.456954
8.9995	3.979E-10	322.48147	0.1000002	0.000118983	322.48147
9.1995	4.124E-10	322.505985	0.1000001	0.000119492	322.505985
9.39949	4.21E-10	322.53049	0.1	0.000120001	322.53049
9.59949	4.148E-10	322.554999	0.0999997	0.000120506	322.554999
9.7995	4.045E-10	322.579599	0.1	0.000121011	322.579599
9.99949	4.418E-10	322.604113	0.1	0.000121511	322.604113
9.9995	3.648E-10	322.62746	0.0999997	0.000121512	322.62746
9.79951	2.709E-10	322.652014	0.0999999	0.000121012	322.652014
9.59949	2.573E-10	322.676523	0.0999999	0.00012051	322.676523
9.39949	2.103E-10	322.701061	0.1000001	0.000120008	322.701061
9.19951	1.768E-10	322.725573	0.1000002	0.000119502	322.725573
8.9995	1.805E-10	322.750102	0.1000002	0.000118993	322.750102
8.79951	1.53E-10	322.774616	0.0999998	0.00011848	322.774616
8.59948	1.682E-10	322.833358	0.0999999	0.000117953	322.833358
8.39949	1.422E-10	322.857877	0.0999999	0.000117429	322.857877
8.1995	1.036E-10	322.882387	0.1	0.000116901	322.882387
7.99949	8.89E-11	322.90698	0.0999998	0.00011637	322.90698
7.7995	9.42E-11	322.931565	0.0999999	0.000115834	322.931565
7.5995	8.02E-11	322.956082	0.0999999	0.000115299	322.956082
7.39949	5.6E-11	322.98077	0.1000001	0.000114759	322.98077
7.19948	5.19E-11	323.005301	0.0999998	0.000114218	323.005301
6.9995	4.7E-11	323.029819	0.0999999	0.000113674	323.029819
6.79951	3.29E-11	323.054358	0.1000003	0.000113126	323.054358
6.59948	1.33E-11	323.07892	0.1000001	0.000112574	323.07892
6.39948	2.32E-11	323.103468	0.0999999	0.000112019	323.103468
6.1995	2.13E-11	323.127982	0.1	0.000111464	323.127982
5.99951	3.2E-12	323.152514	0.1000001	0.000110905	323.152514
5.7995	-1.98E-11	323.177013	0.0999998	0.000110341	323.177013
5.5995	4E-13	323.201628	0.1000001	0.000109774	323.201628
5.39949	-2.36E-11	323.226151	0.0999998	0.000109205	323.226151
5.19951	-4.06E-11	323.250723	0.1000002	0.000108632	323.250723
4.99952	-2.59E-11	323.275238	0.0999997	0.000108056	323.275238
4.79949	1.61E-11	323.33486	0.0999999	0.000107482	323.33486
4.5995	-4.27E-11	323.359393	0.0999999	0.000106901	323.359393
4.39949	-3.65E-11	323.383913	0.0999998	0.00010632	323.383913
4.19949	-3.38E-11	323.408429	0.1	0.000105736	323.408429
3.99952	-5.87E-11	323.433008	0.1000002	0.000105148	323.433008
3.79949	-6.05E-11	323.457525	0.1	0.000104561	323.457525
3.59949	-6.57E-11	323.482248	0.0999998	0.000103971	323.482248
3.39952	-7.68E-11	323.5068	0.1000001	0.000103384	323.5068
3.1995	3.91E-11	323.531315	0.0999998	0.000102795	323.531315
2.9995	-7.23E-11	323.555839	0.0999996	0.000102205	323.555839
2.79949	-8.86E-11	323.580463	0.1	0.000101618	323.580463
2.59952	-9.53E-11	323.605	0.0999999	0.000101029	323.605
2.39949	-1.035E-10	323.629527	0.0999999	0.00010044	323.629527
2.19951	-9.89E-11	323.654061	0.0999999	9.9854E-05	323.654061
1.99948	-1.152E-10	323.678584	0.1	9.9268E-05	323.678584
1.7995	-2.452E-10	323.703162	0.1000001	9.8685E-05	323.703162
1.5995	-1.231E-10	323.727678	0.1	9.8104E-05	323.727678
1.39952	-1.222E-10	323.752199	0.1000001	9.7523E-05	323.752199
1.19951	-1.468E-10	323.776707	0.1	9.6943E-05	323.776707
0.9995	-9.1E-11	323.836909	0.1	9.6373E-05	323.836909
0.79952	-1.136E-10	323.861433	0.0999999	9.5796E-05	323.861433
0.5995	-1.359E-10	323.885951	0.1	9.5225E-05	323.885951
0.39949	-1.511E-10	323.910555	0.1000001	9.4655E-05	323.910555
0.1995	-1.376E-10	323.935121	0.0999997	9.4085E-05	323.935121
-0.00051	-1.563E-10	323.959629	0.1	9.352E-05	323.959629
-0.20049	-1.745E-10	323.984176	0.1000001	9.2961E-05	323.984176
-0.40048	-1.668E-10	324.008705	0.1000001	9.2411E-05	324.008705
-0.60047	-1.604E-10	324.033321	0.1000003	9.1869E-05	324.033321
-0.80051	-1.758E-10	324.057834	0.0999999	9.134E-05	324.057834
-1.0005	-1.913E-10	324.082441	0.0999999	9.0821E-05	324.082441
-1.2005	-1.73E-10	324.106975	0.0999999	9.0312E-05	324.106975
-1.40051	-1.838E-10	324.131524	0.0999998	8.9809E-05	324.131524
-1.60048	-1.98E-10	324.156031	0.1	8.9312E-05	324.156031
-1.80049	-1.981E-10	324.180561	0.0999999	8.8817E-05	324.180561
-2.00051	-1.891E-10	324.205082	0.0999999	8.8322E-05	324.205082
-2.20049	-1.73E-10	324.233045	0.1000048	8.77471E-05	324.233045
-2.40049	-2.017E-10	324.25761	0.1000045	8.72518E-05	324.25761
-2.60049	-2.15E-10	324.28212	0.1000047	8.67537E-05	324.28212
-2.8005	-1.505E-10	324.340906	0.1000046	8.62587E-05	324.340906
-3.00049	-2.051E-10	324.365435	0.1000042	8.57584E-05	324.365435
-3.20049	-2.025E-10	324.390012	0.1000039	8.52589E-05	324.390012
-3.40051	-2.008E-10	324.414636	0.1000055	8.47594E-05	324.414636
-3.60047	-2.176E-10	324.439194	0.1000043	8.42571E-05	324.439194
-3.8005	-2.249E-10	324.463735	0.1000047	8.3754E-05	324.463735
-4.0005	-2.249E-10	324.488516	0.1000049	8.32501E-05	324.488516
-4.20049	-2.273E-10	324.513071	0.1000048	8.27445E-05	324.513071
-4.40049	-2.341E-10	324.53758	0.1000052	8.22377E-05	324.53758
-4.6005	-2.441E-10	324.562091	0.1000047	8.17313E-05	324.562091
-4.80049	-2.325E-10	324.58665	0.1000047	8.12211E-05	324.58665
-5.0005	-2.373E-10	324.611178	0.1000051	8.07105E-05	324.611178
-5.20048	-2.68E-10	324.635696	0.100005	8.01986E-05	324.635696
-5.4005	-2.535E-10	324.660221	0.1000049	7.9683E-05	324.660221
-5.60051	-2.522E-10	324.684733	0.100005	7.91674E-05	324.684733
-5.8005	-2.635E-10	324.709248	0.1000051	7.865E-05	324.709248
-6.00048	-2.636E-10	324.733757	0.1000059	7.81314E-05	324.733757
-6.20049	-2.559E-10	324.758268	0.1000051	7.76103E-05	324.758268
-6.40049	-2.753E-10	324.782779	0.1000045	7.70856E-05	324.782779
-6.60047	-2.185E-10	324.839918	0.1000048	7.65632E-05	324.839918
-6.80048	-2.454E-10	324.864433	0.1000047	7.60367E-05	324.864433
-7.00048	-2.692E-10	324.889085	0.1000049	7.55073E-05	324.889085
-7.20049	-2.683E-10	324.913672	0.100005	7.49765E-05	324.913672
-7.40046	-1.617E-10	324.938261	0.1000058	7.44443E-05	324.938261
-7.60047	-2.732E-10	324.962772	0.100006	7.39103E-05	324.962772
-7.80048	-2.731E-10	324.987328	0.1000049	7.33721E-05	324.987328
-8.00048	-2.664E-10	325.011837	0.1000059	7.28325E-05	325.011837
-8.2005	-2.852E-10	325.036367	0.1000061	7.22926E-05	325.036367
-8.4005	-2.91E-10	325.060887	0.1000058	7.17486E-05	325.060887
-8.60048	-2.892E-10	325.085477	0.1000063	7.12042E-05	325.085477
-8.80048	-3.917E-10	325.109984	0.1000051	7.06559E-05	325.109984
-9.00049	-3.092E-10	325.134526	0.1000059	7.01067E-05	325.134526
-9.20049	-3.177E-10	325.15904	0.1000061	6.95575E-05	325.15904
-9.40048	-3.034E-10	325.183581	0.1000057	6.90021E-05	325.183581
-9.6005	-3.1E-10	325.2081	0.1000052	6.84485E-05	325.2081
-9.80046	-3.286E-10	325.232619	0.1000051	6.78942E-05	325.232619
-10.00048	-3.125E-10	325.257193	0.1000061	6.73369E-05	325.257193
-10.20048	-3.176E-10	325.281709	0.1000055	6.67795E-05	325.281709
-10.4005	-2.84E-10	325.341746	0.100006	6.62249E-05	325.341746
-10.6005	-3.099E-10	325.366265	0.1000065	6.56615E-05	325.366265
-10.80049	-2.941E-10	325.3908	0.1000046	6.50945E-05	325.3908
-11.00048	-3.244E-10	325.415312	0.1000065	6.45282E-05	325.415312
-11.20048	-3.357E-10	325.439909	0.1000066	6.39567E-05	325.439909
-11.40047	-3.126E-10	325.464433	0.1000058	6.33841E-05	325.464433
-11.6005	-3.16E-10	325.489184	0.1000046	6.28089E-05	325.489184
-11.80049	-3.407E-10	325.513726	0.1000066	6.22319E-05	325.513726
-12.00047	-3.417E-10	325.538235	0.1000068	6.16545E-05	325.538235
