#scan	iMeasureCycle=1	iMux=0	time=0.038	N=222	LocalTime=22/06/2023 05:32:50
#VGate(V)	IGate(A)	time(s)	VDrain(V)	IDrain(A)	time(s)
-12.00052	-3.1337E-09	0.06391	0.1000061	6.25483E-05	0.06391
-11.80052	-2.9678E-09	0.088793	0.1000067	6.31297E-05	0.088793
-11.6005	-1.0837E-09	0.113431	0.1000057	6.37071E-05	0.113431
-11.4005	-4.683E-10	0.137959	0.1000066	6.42837E-05	0.137959
-11.20049	-3.199E-10	0.162488	0.1000059	6.48567E-05	0.162488
-11.00048	-2.14E-10	0.18702	0.1000071	6.54277E-05	0.18702
-10.80051	6.1E-12	0.211531	0.1000057	6.59942E-05	0.211531
-10.60049	-4.8E-11	0.236058	0.1000061	6.65626E-05	0.236058
-10.40047	-5.12E-11	0.260578	0.100006	6.7127E-05	0.260578
-10.20049	-3.96E-11	0.285175	0.1000059	6.76869E-05	0.285175
-10.00049	-3.6E-12	0.30968	0.1000064	6.82481E-05	0.30968
-9.80048	2.16E-11	0.334216	0.1000064	6.88065E-05	0.334216
-9.60051	2.12E-11	0.358741	0.1000066	6.93637E-05	0.358741
-9.40047	3.07E-11	0.38328	0.100006	6.99166E-05	0.38328
-9.2005	4.87E-11	0.407798	0.1000061	7.0469E-05	0.407798
-9.00049	6.57E-11	0.432318	0.1000058	7.10155E-05	0.432318
-8.80048	7.85E-11	0.456898	0.1000068	7.15605E-05	0.456898
-8.6005	7.85E-11	0.481455	0.1000068	7.20996E-05	0.481455
-8.40052	1.19E-11	0.505974	0.100006	7.26393E-05	0.505974
-8.20048	6.69E-11	0.530534	0.1000057	7.31756E-05	0.530534
-8.00049	9.21E-11	0.555054	0.1000065	7.37112E-05	0.555054
-7.8005	1.262E-10	0.579577	0.1000058	7.4243E-05	0.579577
-7.60048	5.15E-11	0.627136	0.1000053	7.47704E-05	0.627136
-7.40051	1.261E-10	0.651676	0.100005	7.53015E-05	0.651676
-7.2005	1.29E-10	0.676212	0.1000059	7.58297E-05	0.676212
-7.00051	1.271E-10	0.70073	0.1000055	7.63554E-05	0.70073
-6.80049	1.328E-10	0.725297	0.1000061	7.68806E-05	0.725297
-6.6005	1.486E-10	0.74985	0.1000058	7.74027E-05	0.74985
-6.40051	1.576E-10	0.77442	0.1000053	7.79244E-05	0.77442
-6.20051	1.53E-10	0.798991	0.1000055	7.84428E-05	0.798991
-6.00048	1.736E-10	0.823504	0.1000052	7.89601E-05	0.823504
-5.80052	1.665E-10	0.848013	0.1000055	7.9476E-05	0.848013
-5.60049	1.752E-10	0.872545	0.1000051	7.99888E-05	0.872545
-5.4005	1.946E-10	0.897052	0.1000055	8.05029E-05	0.897052
-5.2005	1.885E-10	0.92157	0.1000046	8.10131E-05	0.92157
-5.00052	1.807E-10	0.946086	0.1000051	8.1522E-05	0.946086
-4.80047	2.065E-10	0.970613	0.1000057	8.20315E-05	0.970613
-4.6005	2.131E-10	0.995135	0.1000054	8.25375E-05	0.995135
-4.4005	2.068E-10	1.019668	0.1000045	8.30423E-05	1.019668
-4.20049	2.081E-10	1.044178	0.1000046	8.35457E-05	1.044178
-4.00047	2.274E-10	1.06869	0.1000055	8.40504E-05	1.06869
-3.80048	1.613E-10	1.128912	0.1000048	8.45475E-05	1.128912
-3.60049	1.937E-10	1.153441	0.1000046	8.50507E-05	1.153441
-3.40051	2.327E-10	1.177981	0.1000047	8.55513E-05	1.177981
-3.20049	2.317E-10	1.202495	0.1000049	8.60498E-05	1.202495
-3.00051	2.1E-10	1.227087	0.1000046	8.655E-05	1.227087
-2.80053	2.288E-10	1.251596	0.1000047	8.70472E-05	1.251596
-2.60049	2.499E-10	1.276177	0.1000046	8.75423E-05	1.276177
-2.40051	2.479E-10	1.300681	0.1000048	8.80387E-05	1.300681
-2.2005	2.367E-10	1.325213	0.1000049	8.85324E-05	1.325213
-2.00051	2.523E-10	1.349727	0.1000057	8.90266E-05	1.349727
-1.80051	2.693E-10	1.374258	0.1000052	8.95206E-05	1.374258
-1.60048	2.602E-10	1.39877	0.1000038	9.00158E-05	1.39877
-1.4005	2.61E-10	1.423295	0.1000042	9.05153E-05	1.423295
-1.20051	2.789E-10	1.44781	0.1000044	9.10199E-05	1.44781
-1.0005	2.786E-10	1.472389	0.1000048	9.15342E-05	1.472389
-0.80051	2.868E-10	1.49691	0.100005	9.20591E-05	1.49691
-0.60051	2.899E-10	1.521479	0.1000039	9.25926E-05	1.521479
-0.40051	2.794E-10	1.546006	0.1000049	9.3136E-05	1.546006
-0.20051	2.921E-10	1.570549	0.1000042	9.36873E-05	1.570549
-0.00049	2.913E-10	1.630249	0.1000048	9.42383E-05	1.630249
0.19948	2.99E-10	1.654788	0.1000046	9.48012E-05	1.654788
0.39948	2.856E-10	1.679318	0.1000043	9.5366E-05	1.679318
0.59952	2.956E-10	1.703827	0.1000049	9.59315E-05	1.703827
0.79948	3.078E-10	1.728387	0.100004	9.64984E-05	1.728387
0.99949	3.097E-10	1.752903	0.1000042	9.70686E-05	1.752903
1.19949	3.222E-10	1.77747	0.100004	9.76389E-05	1.77747
1.3995	3.212E-10	1.802044	0.1000047	9.82124E-05	1.802044
1.59949	3.188E-10	1.826563	0.1000041	9.87877E-05	1.826563
1.7995	3.26E-10	1.851067	0.1000047	9.93653E-05	1.851067
1.99951	3.327E-10	1.87559	0.1000043	9.99429E-05	1.87559
2.1995	3.413E-10	1.900104	0.1000049	0.0001005246	1.900104
2.39951	3.347E-10	1.924612	0.1000043	0.0001011051	1.924612
2.59951	3.349E-10	1.94914	0.1000052	0.0001016857	1.94914
2.79949	3.618E-10	1.973681	0.1000047	0.0001022685	1.973681
2.99949	1.786E-10	1.998204	0.1000043	0.0001028505	1.998204
3.1995	3.274E-10	2.022747	0.1000029	0.000103432	2.022747
3.39951	3.282E-10	2.047262	0.1000037	0.0001040164	2.047262
3.59951	3.592E-10	2.071789	0.1000041	0.0001045974	2.071789
3.79948	2.892E-10	2.137426	0.0999999	0.000105249	2.137426
3.9995	3.411E-10	2.161957	0.1	0.00010583	2.161957
4.19949	3.304E-10	2.186485	0.1	0.000106408	2.186485
4.39948	3.333E-10	2.2111	0.0999999	0.000106983	2.2111
4.59949	3.762E-10	2.235665	0.0999999	0.000107558	2.235665
4.79949	3.6E-10	2.260185	0.1	0.000108129	2.260185
4.99948	3.474E-10	2.284747	0.0999999	0.0001087	2.284747
5.19948	3.763E-10	2.309274	0.1000001	0.000109264	2.309274
5.39949	3.757E-10	2.333795	0.1000001	0.000109829	2.333795
5.59952	3.846E-10	2.358323	0.0999999	0.000110388	2.358323
5.7995	3.675E-10	2.382845	0.0999998	0.000110945	2.382845
5.99949	3.798E-10	2.407385	0.0999999	0.000111499	2.407385
6.19949	3.961E-10	2.431894	0.0999999	0.00011205	2.431894
6.39949	3.836E-10	2.456429	0.0999999	0.000112599	2.456429
6.59949	3.933E-10	2.480989	0.1000001	0.000113141	2.480989
6.79951	3.977E-10	2.505614	0.1	0.000113682	2.505614
6.99947	3.908E-10	2.530144	0.0999999	0.000114218	2.530144
7.19948	3.934E-10	2.554666	0.1	0.000114755	2.554666
7.3995	4.158E-10	2.579189	0.1	0.000115284	2.579189
7.59949	3.487E-10	2.636394	0.0999999	0.00011581	2.636394
7.79948	3.969E-10	2.660931	0.1	0.000116335	2.660931
7.99947	3.821E-10	2.685453	0.1000001	0.000116857	2.685453
8.19948	3.932E-10	2.709969	0.0999998	0.000117376	2.709969
8.3995	4.059E-10	2.734539	0.1	0.000117894	2.734539
8.5995	4.227E-10	2.759068	0.1	0.000118405	2.759068
8.79951	4.065E-10	2.783639	0.1	0.000118916	2.783639
8.99949	3.984E-10	2.808207	0.1000001	0.000119422	2.808207
9.19949	4.366E-10	2.832738	0.1	0.000119928	2.832738
9.3995	4.352E-10	2.857238	0.0999999	0.000120434	2.857238
9.59949	4.145E-10	2.881842	0.1	0.000120935	2.881842
9.79949	4.255E-10	2.906358	0.1000001	0.000121438	2.906358
9.99951	4.33E-10	2.930872	0.1	0.000121937	2.930872
9.99948	3.705E-10	2.954207	0.0999998	0.000121936	2.954207
9.7995	2.987E-10	2.97882	0.0999999	0.000121439	2.97882
9.5995	2.405E-10	3.003339	0.1000001	0.00012094	3.003339
9.39951	2.629E-10	3.027896	0.0999998	0.00012044	3.027896
9.19954	1.941E-10	3.052405	0.1	0.000119935	3.052405
8.99953	1.836E-10	3.076922	0.1	0.00011943	3.076922
8.79954	1.98E-10	3.131032	0.1	0.000118915	3.131032
8.59954	1.594E-10	3.155674	0.0999999	0.000118396	3.155674
8.39957	1.136E-10	3.1802	0.0999999	0.000117877	3.1802
8.19957	1.027E-10	3.204723	0.0999998	0.00011735	3.204723
7.99953	1.087E-10	3.229306	0.1	0.000116822	3.229306
7.79955	7.93E-11	3.253821	0.0999997	0.000116292	3.253821
7.59954	6.55E-11	3.278379	0.1000001	0.000115757	3.278379
7.39954	7.03E-11	3.302899	0.0999998	0.00011522	3.302899
7.19955	1.5E-10	3.327438	0.0999999	0.000114682	3.327438
6.99948	2.56E-11	3.351948	0.0999999	0.000114139	3.351948
6.79953	4.37E-11	3.376463	0.1000001	0.000113592	3.376463
6.5995	2.25E-11	3.401066	0.0999998	0.000113046	3.401066
6.39949	1.29E-11	3.425582	0.0999999	0.000112497	3.425582
6.1995	1.03E-11	3.450086	0.1000001	0.000111943	3.450086
5.9995	7.5E-12	3.474664	0.1000001	0.000111386	3.474664
5.79949	2.4E-12	3.499198	0.0999998	0.000110825	3.499198
5.59951	-2.67E-11	3.523776	0.0999999	0.000110264	3.523776
5.3995	-1.2E-11	3.548317	0.1	0.000109699	3.548317
5.19948	-1.98E-11	3.572835	0.1	0.000109129	3.572835
4.9995	3.54E-11	3.630545	0.0999998	0.000108559	3.630545
4.79949	-5.2E-12	3.655089	0.0999998	0.000107985	3.655089
4.59951	1.086E-10	3.679617	0.1000001	0.000107408	3.679617
4.3995	-1.383E-10	3.704219	0.1	0.000106828	3.704219
4.19945	-5.17E-11	3.728822	0.0999996	0.000106246	3.728822
3.99948	-5.66E-11	3.753361	0.0999999	0.000105665	3.753361
3.79948	-6.56E-11	3.777889	0.1000001	0.000105081	3.777889
3.59949	-7.74E-11	3.80251	0.1000001	0.000104496	3.80251
3.39949	-6.9E-11	3.827045	0.0999998	0.000103913	3.827045
3.1995	-8.52E-11	3.851569	0.0999999	0.000103325	3.851569
2.99949	-9.52E-11	3.87609	0.0999999	0.000102738	3.87609
2.7995	-8.17E-11	3.90063	0.1	0.000102151	3.90063
2.59951	-1.12E-10	3.925146	0.1	0.000101564	3.925146
2.39951	-1.075E-10	3.949677	0.1000001	0.000100982	3.949677
2.1995	-1.056E-10	3.9742	0.0999999	0.000100398	3.9742
1.9995	-1.176E-10	3.99872	0.1000001	9.9817E-05	3.99872
1.79948	-1.236E-10	4.02324	0.0999998	9.9237E-05	4.02324
1.5995	-1.359E-10	4.047785	0.0999998	9.8659E-05	4.047785
1.39951	-1.233E-10	4.0723	0.1	9.8082E-05	4.0723
1.19951	-1.17E-10	4.09686	0.0999998	9.7506E-05	4.09686
0.99953	-1.095E-10	4.138866	0.1000001	9.6935E-05	4.138866
0.7995	-1.175E-10	4.163404	0.1000001	9.6363E-05	4.163404
0.5995	-1.443E-10	4.187923	0.0999999	9.5794E-05	4.187923
0.39952	-1.568E-10	4.212452	0.0999998	9.5227E-05	4.212452
0.19951	-1.497E-10	4.237038	0.1000001	9.4662E-05	4.237038
-0.0005	-1.575E-10	4.261542	0.1	9.41E-05	4.261542
-0.2005	-1.767E-10	4.286127	0.0999998	9.3544E-05	4.286127
-0.4005	-1.704E-10	4.310745	0.1000002	9.2994E-05	4.310745
-0.6005	-1.635E-10	4.335273	0.0999999	9.2456E-05	4.335273
-0.80049	-1.738E-10	4.359792	0.1000003	9.1927E-05	4.359792
-1.00051	-1.995E-10	4.384321	0.1	9.1411E-05	4.384321
-1.20047	-1.917E-10	4.408843	0.1000002	9.0902E-05	4.408843
-1.40048	-1.821E-10	4.433395	0.1	9.0402E-05	4.433395
-1.60047	-1.936E-10	4.457905	0.0999999	8.9907E-05	4.457905
-1.80049	-2.043E-10	4.482489	0.0999998	8.9411E-05	4.482489
-2.00049	-2.027E-10	4.50701	0.1000001	8.8917E-05	4.50701
-2.2005	-2.081E-10	4.531553	0.1	8.8425E-05	4.531553
-2.40049	-1.794E-10	4.559443	0.1000051	8.78514E-05	4.559443
-2.6005	-2.274E-10	4.583952	0.1000053	8.73565E-05	4.583952
-2.80048	-1.533E-10	4.642965	0.1000052	8.68631E-05	4.642965
-3.00049	-2.097E-10	4.66751	0.1000047	8.63663E-05	4.66751
-3.20051	-2.042E-10	4.692022	0.1000049	8.58675E-05	4.692022
-3.4005	-2.028E-10	4.716558	0.1000045	8.53682E-05	4.716558
-3.60049	-2.235E-10	4.741132	0.1000055	8.48692E-05	4.741132
-3.80048	-2.333E-10	4.765664	0.1000049	8.43682E-05	4.765664
-4.00049	-2.392E-10	4.790229	0.100004	8.38649E-05	4.790229
-4.20049	-2.069E-10	4.814823	0.1000049	8.33628E-05	4.814823
-4.4005	-2.393E-10	4.83934	0.1000055	8.28582E-05	4.83934
-4.60049	-2.608E-10	4.863881	0.1000045	8.2352E-05	4.863881
-4.80049	-2.407E-10	4.888397	0.1000054	8.18455E-05	4.888397
-5.00051	-2.371E-10	4.912943	0.100005	8.13355E-05	4.912943
-5.20048	-2.536E-10	4.937461	0.1000049	8.08252E-05	4.937461
-5.40049	-2.669E-10	4.961995	0.1000054	8.03149E-05	4.961995
-5.60048	-2.545E-10	4.986502	0.1000048	7.97993E-05	4.986502
-5.80049	-2.593E-10	5.011023	0.1000052	7.92846E-05	5.011023
-6.0005	-2.603E-10	5.035568	0.1000052	7.87671E-05	5.035568
-6.20048	-2.757E-10	5.060077	0.1000052	7.8249E-05	5.060077
-6.40048	-1.687E-10	5.084587	0.1000065	7.77289E-05	5.084587
-6.6005	-2.177E-10	5.142003	0.1000057	7.72084E-05	5.142003
-6.80047	-2.508E-10	5.166541	0.1000055	7.66819E-05	5.166541
-7.00048	-2.633E-10	5.191074	0.1000061	7.6156E-05	5.191074
-7.20047	-2.582E-10	5.215595	0.1000055	7.56268E-05	5.215595
-7.40048	-2.732E-10	5.240186	0.1000057	7.5097E-05	5.240186
-7.60048	-2.851E-10	5.264696	0.1000055	7.45642E-05	5.264696
-7.80049	-2.807E-10	5.289269	0.1000061	7.403E-05	5.289269
-8.00048	-4.699E-10	5.31378	0.1000054	7.34937E-05	5.31378
-8.20047	-3.074E-10	5.33832	0.100005	7.29537E-05	5.33832
-8.40051	-3.002E-10	5.362856	0.1000063	7.2414E-05	5.362856
-8.60049	-3.178E-10	5.387383	0.1000064	7.18711E-05	5.387383
-8.8005	-2.834E-10	5.411904	0.1000057	7.13274E-05	5.411904
-9.00048	-2.982E-10	5.436452	0.1000058	7.07786E-05	5.436452
-9.20051	-3.282E-10	5.460953	0.1000064	7.02317E-05	5.460953
-9.40049	-3.18E-10	5.485536	0.1000063	6.96803E-05	5.485536
-9.60049	-3.035E-10	5.510149	0.1000055	6.91275E-05	5.510149
-9.80049	-3.206E-10	5.534695	0.1000063	6.85771E-05	5.534695
-10.00046	-3.271E-10	5.559219	0.1000065	6.80209E-05	5.559219
-10.20048	-3.242E-10	5.583737	0.1000055	6.74655E-05	5.583737
-10.40048	-2.789E-10	5.643683	0.1000053	6.69134E-05	5.643683
-10.60052	-3.209E-10	5.668205	0.1000059	6.63513E-05	5.668205
-10.80048	-3.017E-10	5.692721	0.1000056	6.57875E-05	5.692721
-11.00047	-3.139E-10	5.717239	0.1000066	6.52226E-05	5.717239
-11.20049	-3.272E-10	5.741838	0.1000063	6.46549E-05	5.741838
-11.40049	-3.361E-10	5.766362	0.1000062	6.4084E-05	5.766362
-11.60048	-3.319E-10	5.790933	0.1000063	6.35117E-05	5.790933
-11.80049	-3.194E-10	5.815496	0.1000062	6.29372E-05	5.815496
-12.00049	-3.493E-10	5.840014	0.1000054	6.23599E-05	5.840014
#scan	iMeasureCycle=2	iMux=0	time=279.706	N=222	LocalTime=22/06/2023 05:37:30
#VGate(V)	IGate(A)	time(s)	VDrain(V)	IDrain(A)	time(s)
-12.00048	-8.91E-11	279.713491	0.1000061	6.24011E-05	279.713491
-11.80048	-2.68E-11	279.738364	0.1000054	6.29801E-05	279.738364
-11.6005	-3.3E-12	279.764019	0.1000057	6.35574E-05	279.764019
-11.4005	1.69E-11	279.78856	0.1000066	6.41326E-05	279.78856
-11.2005	3.45E-11	279.81309	0.1000068	6.47056E-05	279.81309
-11.00052	5.02E-11	279.837629	0.1000069	6.52761E-05	279.837629
-10.8005	5.63E-11	279.862153	0.1000057	6.58426E-05	279.862153
-10.6005	7.64E-11	279.886681	0.1000055	6.64099E-05	279.886681
-10.40047	7.88E-11	279.911201	0.100006	6.69741E-05	279.911201
-10.2005	7.3E-11	279.935745	0.1000055	6.75353E-05	279.935745
-10.00048	1.024E-10	279.96032	0.1000055	6.80957E-05	279.96032
-9.8005	1.121E-10	279.984845	0.1000057	6.86551E-05	279.984845
-9.60049	1.019E-10	280.009478	0.1000067	6.92113E-05	280.009478
-9.4005	1.09E-10	280.033993	0.1000061	6.97657E-05	280.033993
-9.20047	1.356E-10	280.058617	0.1000058	7.03181E-05	280.058617
-9.00049	1.342E-10	280.083123	0.1000062	7.08652E-05	280.083123
-8.80047	1.247E-10	280.107667	0.1000054	7.14091E-05	280.107667
-8.6005	1.336E-10	280.13218	0.1000054	7.19503E-05	280.13218
-8.4005	1.535E-10	280.1567	0.1000064	7.24903E-05	280.1567
-8.20049	1.535E-10	280.181213	0.100006	7.30279E-05	280.181213
-8.00051	1.431E-10	280.205744	0.1000056	7.35635E-05	280.205744
-7.80049	1.693E-10	280.230244	0.1000054	7.4097E-05	280.230244
-7.60052	1.113E-10	280.272335	0.1000059	7.46276E-05	280.272335
-7.4005	1.525E-10	280.296919	0.1000057	7.51582E-05	280.296919
-7.20049	1.739E-10	280.321448	0.1000055	7.5687E-05	280.321448
-7.00049	1.681E-10	280.345975	0.1000049	7.62151E-05	280.345975
-6.80048	1.774E-10	280.37055	0.1000056	7.67411E-05	280.37055
-6.60048	1.755E-10	280.395089	0.1000054	7.72648E-05	280.395089
-6.4005	1.991E-10	280.419609	0.1000055	7.77878E-05	280.419609
-6.20049	1.985E-10	280.444141	0.1000051	7.83069E-05	280.444141
-6.00048	1.825E-10	280.468639	0.1000055	7.88254E-05	280.468639
-5.8005	2.09E-10	280.493246	0.1000049	7.93414E-05	280.493246
-5.60051	2.069E-10	280.517761	0.1000051	7.98573E-05	280.517761
-5.40051	2.002E-10	280.542303	0.1000052	8.03711E-05	280.542303
-5.20049	2.172E-10	280.566827	0.1000061	8.08817E-05	280.566827
-5.0005	2.279E-10	280.591364	0.1000054	8.13916E-05	280.591364
-4.80048	2.208E-10	280.616025	0.1000057	8.18995E-05	280.616025
-4.60048	2.183E-10	280.640542	0.1000057	8.24075E-05	280.640542
-4.4005	2.356E-10	280.665053	0.1000045	8.29119E-05	280.665053
-4.2005	2.302E-10	280.689556	0.1000045	8.34175E-05	280.689556
-4.00048	2.257E-10	280.714086	0.1000057	8.3921E-05	280.714086
-3.80051	1.926E-10	280.762687	0.100005	8.44187E-05	280.762687
-3.60048	2.898E-10	280.78726	0.1000053	8.49221E-05	280.78726
-3.40048	2.297E-10	280.811831	0.1000046	8.54222E-05	280.811831
-3.20048	2.634E-10	280.836346	0.1000056	8.59225E-05	280.836346
-3.00049	2.469E-10	280.862714	0.1000045	8.64197E-05	280.862714
-2.80047	2.55E-10	280.887231	0.1000054	8.69177E-05	280.887231
-2.60048	2.447E-10	280.911772	0.1000046	8.74138E-05	280.911772
-2.40049	2.585E-10	280.936298	0.100004	8.79093E-05	280.936298
-2.20051	2.716E-10	280.960874	0.1000052	8.84044E-05	280.960874
-2.00049	1.306E-10	280.9854	0.1000053	8.88987E-05	280.9854
-1.80049	2.4E-10	281.010017	0.1000049	8.93922E-05	281.010017
-1.60049	2.627E-10	281.034554	0.100005	8.98894E-05	281.034554
-1.4005	2.729E-10	281.059065	0.1000044	9.03878E-05	281.059065
-1.2005	2.773E-10	281.0836	0.1000044	9.08913E-05	281.0836
-1.00049	2.87E-10	281.108119	0.1000038	9.14055E-05	281.108119
-0.80052	2.725E-10	281.132659	0.1000041	9.19283E-05	281.132659
-0.60051	2.808E-10	281.157175	0.1000045	9.24631E-05	281.157175
-0.40051	2.966E-10	281.181729	0.1000048	9.30061E-05	281.181729
-0.20053	2.977E-10	281.20621	0.1000047	9.35589E-05	281.20621
-0.00051	2.963E-10	281.230734	0.1000047	9.41162E-05	281.230734
0.1995	2.621E-10	281.279697	0.1000042	9.4673E-05	281.279697
0.39952	2.893E-10	281.304229	0.1000042	9.52394E-05	281.304229
0.59951	2.818E-10	281.328761	0.1000039	9.58058E-05	281.328761
0.79949	3.091E-10	281.353275	0.1000038	9.63743E-05	281.353275
0.99952	3.07E-10	281.377848	0.1000049	9.69461E-05	281.377848
1.19948	3.107E-10	281.402377	0.1000039	9.7517E-05	281.402377
1.39949	3.16E-10	281.426903	0.1000034	9.80898E-05	281.426903
1.5995	3.217E-10	281.451435	0.1000041	9.86664E-05	281.451435
1.7995	3.216E-10	281.475946	0.1000036	9.9243E-05	281.475946
1.9995	3.212E-10	281.500479	0.1000038	9.98236E-05	281.500479
2.19949	3.439E-10	281.525019	0.100003	0.0001004029	281.525019
2.3995	3.415E-10	281.549522	0.1000042	0.0001009843	281.549522
2.59951	3.262E-10	281.574058	0.1000038	0.0001015674	281.574058
2.7995	3.334E-10	281.598568	0.1000031	0.0001021487	281.598568
2.99949	3.689E-10	281.623235	0.1000045	0.0001027336	281.623235
3.1995	3.435E-10	281.647754	0.1000045	0.0001033175	281.647754
3.39948	3.311E-10	281.672286	0.1000039	0.0001038996	281.672286
3.59949	3.64E-10	281.696792	0.1000034	0.0001044837	281.696792
3.79949	3.177E-10	281.726384	0.0999997	0.000105142	281.726384
3.99948	2.985E-10	281.781696	0.1	0.000105715	281.781696
4.19949	3.337E-10	281.806219	0.1	0.000106294	281.806219
4.39948	3.478E-10	281.83075	0.1000002	0.000106873	281.83075
4.59952	3.481E-10	281.855266	0.0999998	0.000107448	281.855266
4.79949	3.575E-10	281.879832	0.0999999	0.00010802	281.879832
4.99949	3.795E-10	281.904352	0.1000001	0.000108592	281.904352
5.19948	3.563E-10	281.928891	0.0999999	0.000109158	281.928891
5.39949	3.505E-10	281.953469	0.1000001	0.00010972	281.953469
5.5995	3.797E-10	281.977978	0.1000001	0.000110284	281.977978
5.7995	3.856E-10	282.002515	0.1	0.00011084	282.002515
5.99949	3.76E-10	282.02703	0.1	0.000111396	282.02703
6.1995	3.698E-10	282.051644	0.1	0.000111949	282.051644
6.39948	3.967E-10	282.076158	0.1000001	0.000112496	282.076158
6.59948	3.857E-10	282.100692	0.1	0.000113041	282.100692
6.7995	3.818E-10	282.125202	0.0999997	0.000113585	282.125202
6.9995	3.96E-10	282.149734	0.1000001	0.000114125	282.149734
7.19947	3.927E-10	282.174243	0.1	0.000114659	282.174243
7.39949	4.562E-10	282.198764	0.1000002	0.000115192	282.198764
7.59949	4.191E-10	282.223276	0.0999999	0.000115722	282.223276
7.79949	3.498E-10	282.285618	0.1000002	0.000116242	282.285618
7.99949	3.9E-10	282.310159	0.1	0.000116766	282.310159
8.19949	3.836E-10	282.33476	0.0999999	0.000117287	282.33476
8.39948	3.973E-10	282.359283	0.1000002	0.000117804	282.359283
8.5995	4.12E-10	282.383837	0.0999999	0.000118317	282.383837
8.7995	2.779E-10	282.408359	0.1	0.000118829	282.408359
8.99948	3.831E-10	282.432882	0.0999999	0.000119334	282.432882
9.19948	4.069E-10	282.457395	0.0999998	0.000119842	282.457395
9.39947	4.188E-10	282.481912	0.0999999	0.000120349	282.481912
9.59948	4.071E-10	282.506447	0.0999999	0.000120851	282.506447
9.79948	4.09E-10	282.530969	0.1	0.000121353	282.530969
9.99948	4.313E-10	282.555554	0.1000002	0.000121852	282.555554
9.99949	3.648E-10	282.578887	0.0999999	0.000121852	282.578887
9.79949	2.802E-10	282.603406	0.1	0.000121354	282.603406
9.59949	2.492E-10	282.627958	0.1000001	0.000120856	282.627958
9.3995	2.099E-10	282.652481	0.0999998	0.000120356	282.652481
9.19952	1.86E-10	282.67699	0.1000002	0.00011985	282.67699
8.9995	1.838E-10	282.701494	0.0999999	0.000119345	282.701494
8.79951	1.508E-10	282.726003	0.0999999	0.000118835	282.726003
8.5995	1.781E-10	282.780229	0.0999999	0.00011831	282.780229
8.39951	1.244E-10	282.804796	0.0999997	0.000117786	282.804796
8.19949	1.061E-10	282.829313	0.0999999	0.000117261	282.829313
7.99948	9.83E-11	282.853824	0.0999999	0.00011673	282.853824
7.7995	8.98E-11	282.878404	0.1000002	0.000116202	282.878404
7.59948	7.07E-11	282.902909	0.1	0.000115666	282.902909
7.39952	6.58E-11	282.927527	0.0999998	0.00011513	282.927527
7.1995	5.36E-11	282.95203	0.1000002	0.00011459	282.95203
6.99949	4.15E-11	282.976611	0.1000001	0.000114046	282.976611
6.79952	3.69E-11	283.001368	0.0999999	0.000113501	283.001368
6.59949	3.98E-11	283.025866	0.1	0.000112953	283.025866
6.39949	1.64E-11	283.050375	0.1	0.000112403	283.050375
6.19951	-1E-12	283.074895	0.0999999	0.000111851	283.074895
5.9995	2.15E-11	283.099402	0.0999999	0.000111293	283.099402
5.7995	-6.5E-12	283.123903	0.1	0.000110732	283.123903
5.5995	-1.12E-11	283.148429	0.1	0.000110169	283.148429
5.39949	-2.09E-11	283.172945	0.1000003	0.000109605	283.172945
5.19951	-1.51E-11	283.197472	0.1000001	0.000109034	283.197472
4.9995	-1.81E-11	283.222056	0.0999999	0.000108463	283.222056
4.79951	2.86E-11	283.270126	0.1	0.000107889	283.270126
4.59951	-3.03E-11	283.294727	0.1000002	0.000107313	283.294727
4.39949	-4.49E-11	283.319332	0.1	0.000106734	283.319332
4.19949	-3.77E-11	283.343865	0.1	0.000106151	283.343865
3.9995	-2.99E-11	283.370022	0.0999998	0.00010557	283.370022
3.79949	-7.25E-11	283.394548	0.0999998	0.000104985	283.394548
3.59951	-7.49E-11	283.41908	0.1	0.000104399	283.41908
3.39951	-5.37E-11	283.443596	0.0999998	0.000103812	283.443596
3.19952	-7.86E-11	283.468142	0.0999999	0.000103225	283.468142
2.9995	-9.55E-11	283.492654	0.1000001	0.000102639	283.492654
2.79949	-9.93E-11	283.517212	0.0999999	0.000102053	283.517212
2.5995	-7.44E-11	283.541723	0.1	0.000101469	283.541723
2.39949	-1.041E-10	283.566254	0.1000002	0.000100884	283.566254
2.1995	-1.51E-11	283.59076	0.0999998	0.000100301	283.59076
1.99952	-8.23E-11	283.615294	0.1	9.9717E-05	283.615294
1.7995	-1.011E-10	283.639856	0.1000002	9.9138E-05	283.639856
1.59953	-1.18E-10	283.664384	0.1	9.8558E-05	283.664384
1.3995	-1.16E-10	283.688902	0.0999999	9.7982E-05	283.688902
1.19951	-1.303E-10	283.713405	0.1000001	9.7408E-05	283.713405
0.99951	-1.278E-10	283.73793	0.1	9.6832E-05	283.73793
0.79951	-8.48E-11	283.787851	0.0999999	9.6263E-05	283.787851
0.59952	-2.416E-10	283.812434	0.1	9.5695E-05	283.812434
0.39954	-1.559E-10	283.837047	0.1000001	9.5127E-05	283.837047
0.19948	-1.66E-10	283.861599	0.1000001	9.4562E-05	283.861599
-0.0005	-1.413E-10	283.886141	0.1	9.4001E-05	283.886141
-0.20049	-1.62E-10	283.910666	0.0999999	9.3443E-05	283.910666
-0.4005	-1.793E-10	283.935188	0.1000003	9.2894E-05	283.935188
-0.60047	-1.681E-10	283.959739	0.1000002	9.2356E-05	283.959739
-0.80051	-1.759E-10	283.984257	0.0999999	9.1827E-05	283.984257
-1.00047	-1.805E-10	284.008801	0.1	9.1309E-05	284.008801
-1.2005	-1.978E-10	284.033313	0.1	9.0801E-05	284.033313
-1.4005	-1.851E-10	284.057924	0.1	9.0302E-05	284.057924
-1.60046	-1.749E-10	284.082455	0.1000001	8.9806E-05	284.082455
-1.80051	-2.123E-10	284.106973	0.1	8.9313E-05	284.106973
-2.00051	-1.974E-10	284.131497	0.0999998	8.8819E-05	284.131497
-2.20052	-1.962E-10	284.156027	0.1	8.8326E-05	284.156027
-2.40051	-2.167E-10	284.180556	0.1000001	8.7833E-05	284.180556
-2.60049	-1.905E-10	284.208391	0.1000044	8.72587E-05	284.208391
-2.80051	-2.289E-10	284.232902	0.100004	8.6762E-05	284.232902
-3.00048	-1.662E-10	284.29273	0.1000048	8.62687E-05	284.29273
-3.2005	-2.012E-10	284.317254	0.1000056	8.57709E-05	284.317254
-3.40049	-2.118E-10	284.341802	0.1000044	8.52706E-05	284.341802
-3.60047	-2.051E-10	284.366332	0.1000047	8.47713E-05	284.366332
-3.80048	-2.257E-10	284.390925	0.1000044	8.42705E-05	284.390925
-4.00049	-2.345E-10	284.415437	0.1000055	8.37688E-05	284.415437
-4.20048	-2.317E-10	284.440042	0.1000054	8.32651E-05	284.440042
-4.4005	-2.279E-10	284.464562	0.1000042	8.27606E-05	284.464562
-4.60049	-2.482E-10	284.489088	0.1000052	8.2256E-05	284.489088
-4.80049	-2.638E-10	284.513616	0.1000048	8.17473E-05	284.513616
-5.0005	-2.318E-10	284.53814	0.1000051	8.12388E-05	284.53814
-5.2005	-2.449E-10	284.562667	0.1000047	8.0728E-05	284.562667
-5.4005	-2.654E-10	284.587196	0.1000043	8.02164E-05	284.587196
-5.60049	-2.623E-10	284.611708	0.1000048	7.9702E-05	284.611708
-5.8005	-2.564E-10	284.636314	0.1000039	7.91873E-05	284.636314
-6.00049	-2.688E-10	284.660845	0.1000054	7.86701E-05	284.660845
-6.20051	-2.678E-10	284.685382	0.1000056	7.81503E-05	284.685382
-6.40049	-2.645E-10	284.709891	0.1000052	7.76294E-05	284.709891
-6.60051	-2.751E-10	284.734416	0.1000052	7.71069E-05	284.734416
-6.80048	-2.175E-10	284.791342	0.1000049	7.65834E-05	284.791342
-7.00051	-2.533E-10	284.815905	0.1000052	7.60565E-05	284.815905
-7.20049	-2.676E-10	284.840456	0.100005	7.55274E-05	284.840456
-7.40048	-2.631E-10	284.864984	0.100004	7.49958E-05	284.864984
-7.60049	-2.801E-10	284.889574	0.1000063	7.4465E-05	284.889574
-7.80049	-2.926E-10	284.914095	0.1000062	7.39291E-05	284.914095
-8.00049	-2.871E-10	284.938636	0.1000062	7.33941E-05	284.938636
-8.20048	-2.669E-10	284.963269	0.1000053	7.28545E-05	284.963269
-8.40051	-2.995E-10	284.987811	0.1000057	7.23135E-05	284.987811
-8.60051	-1.855E-10	285.012345	0.1000057	7.17709E-05	285.012345
-8.8005	-2.82E-10	285.036869	0.1000063	7.12262E-05	285.036869
-9.0005	-2.803E-10	285.061398	0.1000064	7.06785E-05	285.061398
-9.20048	-3.006E-10	285.085916	0.1000066	7.01284E-05	285.085916
-9.40049	-3.115E-10	285.110439	0.1000062	6.95793E-05	285.110439
-9.60048	-2.962E-10	285.134945	0.1000067	6.90272E-05	285.134945
-9.80048	-3.059E-10	285.159474	0.1000058	6.84738E-05	285.159474
-10.00049	-3.136E-10	285.184006	0.1000064	6.79192E-05	285.184006
-10.20048	-3.77E-10	285.208525	0.1000057	6.73633E-05	285.208525
-10.40045	-3.48E-10	285.233044	0.1000054	6.68042E-05	285.233044
-10.60048	-2.812E-10	285.292744	0.1000053	6.62495E-05	285.292744
-10.80049	-3.055E-10	285.317324	0.100005	6.56843E-05	285.317324
-11.00048	-2.998E-10	285.341836	0.1000064	6.51193E-05	285.341836
-11.20048	-3.209E-10	285.366353	0.1000058	6.45508E-05	285.366353
-11.40048	-3.353E-10	285.390932	0.1000051	6.39803E-05	285.390932
-11.60048	-3.19E-10	285.415451	0.1000055	6.34067E-05	285.415451
-11.80046	-3.272E-10	285.439981	0.1000055	6.28329E-05	285.439981
-12.00049	-3.41E-10	285.464488	0.1000052	6.22564E-05	285.464488
#scan	iMeasureCycle=3	iMux=0	time=319.807	N=222	LocalTime=22/06/2023 05:38:10
#VGate(V)	IGate(A)	time(s)	VDrain(V)	IDrain(A)	time(s)
-12.00046	-6.84E-11	319.814501	0.1000065	6.24073E-05	319.814501
-11.80051	-1.72E-11	319.839395	0.100007	6.29856E-05	319.839395
-11.60049	-1.13E-11	319.86506	0.1000062	6.35636E-05	319.86506
-11.40051	2.21E-11	319.889628	0.1000065	6.41378E-05	319.889628
-11.2005	5.14E-11	319.914163	0.1000061	6.47105E-05	319.914163
-11.00049	5.4E-11	319.938701	0.1000073	6.52809E-05	319.938701
-10.8005	5.18E-11	319.963215	0.100006	6.58488E-05	319.963215
-10.6005	8.09E-11	319.987746	0.1000065	6.64158E-05	319.987746
-10.40048	8.22E-11	320.012268	0.1000068	6.69794E-05	320.012268
-10.2005	7.61E-11	320.036853	0.1000063	6.75414E-05	320.036853
-10.00049	1.012E-10	320.061495	0.1000056	6.81011E-05	320.061495
-9.80049	1.04E-10	320.086028	0.1000058	6.86602E-05	320.086028
-9.60049	1.091E-10	320.11055	0.1000073	6.92165E-05	320.11055
-9.4005	1.095E-10	320.135064	0.1000059	6.97715E-05	320.135064
-9.2005	1.284E-10	320.159594	0.1000054	7.03229E-05	320.159594
-9.00051	1.304E-10	320.184109	0.1000066	7.08692E-05	320.184109
-8.8005	1.26E-10	320.208654	0.1000061	7.14137E-05	320.208654
-8.60051	1.416E-10	320.233171	0.100006	7.19549E-05	320.233171
-8.40049	1.65E-10	320.257705	0.100006	7.24944E-05	320.257705
-8.2005	1.481E-10	320.282215	0.1000067	7.30317E-05	320.282215
-8.00047	1.547E-10	320.306747	0.1000058	7.35679E-05	320.306747
-7.80049	1.643E-10	320.33126	0.1000067	7.41014E-05	320.33126
-7.6005	3.512E-10	320.377734	0.1000067	7.46317E-05	320.377734
-7.40049	1.858E-10	320.402324	0.1000062	7.51627E-05	320.402324
-7.2005	1.651E-10	320.426851	0.1000056	7.56911E-05	320.426851
-7.0005	1.798E-10	320.451358	0.1000057	7.6219E-05	320.451358
-6.80049	1.866E-10	320.475942	0.1000059	7.67452E-05	320.475942
-6.60049	1.91E-10	320.500395	0.1000063	7.72689E-05	320.500395
-6.4005	1.804E-10	320.524933	0.1000057	7.77912E-05	320.524933
-6.20049	7.91E-11	320.549443	0.1000062	7.83117E-05	320.549443
-6.00049	1.961E-10	320.573986	0.1000053	7.88288E-05	320.573986
-5.80049	1.927E-10	320.598497	0.1000055	7.93454E-05	320.598497
-5.60049	1.882E-10	320.623038	0.1000042	7.98603E-05	320.623038
-5.4005	2.153E-10	320.647548	0.100005	8.03746E-05	320.647548
-5.20051	2.04E-10	320.67208	0.1000061	8.0885E-05	320.67208
-5.0005	2.049E-10	320.696593	0.1000052	8.13945E-05	320.696593
-4.80048	2.33E-10	320.721172	0.1000057	8.19032E-05	320.721172
-4.6005	2.255E-10	320.745686	0.1000059	8.24104E-05	320.745686
-4.40049	2.18E-10	320.770222	0.1000048	8.29152E-05	320.770222
-4.20051	2.382E-10	320.794749	0.1000059	8.34193E-05	320.794749
-4.0005	2.383E-10	320.819271	0.100006	8.39226E-05	320.819271
-3.80049	1.745E-10	320.87947	0.1000053	8.44213E-05	320.87947
-3.60048	2.204E-10	320.904008	0.1000052	8.49221E-05	320.904008
-3.40051	2.306E-10	320.928541	0.1000042	8.54214E-05	320.928541
-3.2005	2.335E-10	320.95305	0.1000047	8.5921E-05	320.95305
-3.00048	2.366E-10	320.977656	0.1000049	8.64195E-05	320.977656
-2.80051	2.501E-10	321.002174	0.1000049	8.69153E-05	321.002174
-2.60049	2.471E-10	321.026721	0.1000045	8.74122E-05	321.026721
-2.40053	2.549E-10	321.051283	0.1000051	8.79074E-05	321.051283
-2.20051	2.521E-10	321.075824	0.1000044	8.84032E-05	321.075824
-2.00051	2.667E-10	321.100339	0.1000059	8.88969E-05	321.100339
-1.8005	2.629E-10	321.124865	0.1000044	8.939E-05	321.124865
-1.60051	2.559E-10	321.149382	0.1000042	8.98856E-05	321.149382
-1.40051	2.837E-10	321.173887	0.1000051	9.03838E-05	321.173887
-1.2005	2.846E-10	321.198406	0.1000049	9.08905E-05	321.198406
-1.0005	2.751E-10	321.222936	0.1000045	9.14027E-05	321.222936
-0.80052	2.807E-10	321.247454	0.1000038	9.19245E-05	321.247454
-0.60049	2.924E-10	321.271977	0.1000039	9.24598E-05	321.271977
-0.40048	2.903E-10	321.296495	0.1000044	9.30044E-05	321.296495
-0.20052	2.906E-10	321.321026	0.1000045	9.35554E-05	321.321026
-0.00049	2.542E-10	321.381029	0.1000045	9.41075E-05	321.381029
0.19949	2.755E-10	321.405559	0.100005	9.46712E-05	321.405559
0.39952	2.762E-10	321.430104	0.1000046	9.52373E-05	321.430104
0.59951	2.957E-10	321.454614	0.1000047	9.58035E-05	321.454614
0.79948	2.984E-10	321.479188	0.1000052	9.63733E-05	321.479188
0.99951	3.024E-10	321.503713	0.1000043	9.69416E-05	321.503713
1.1995	2.984E-10	321.528236	0.1000034	9.7515E-05	321.528236
1.39949	3.208E-10	321.552756	0.1000039	9.80897E-05	321.552756
1.5995	3.091E-10	321.577288	0.1000042	9.86634E-05	321.577288
1.79951	3.133E-10	321.601803	0.1000037	9.92414E-05	321.601803
1.9995	3.246E-10	321.626328	0.1000039	9.98209E-05	321.626328
2.19949	3.377E-10	321.650843	0.1000037	0.000100401	321.650843
2.39951	3.278E-10	321.675352	0.1000035	0.0001009832	321.675352
2.5995	3.366E-10	321.69987	0.1000041	0.0001015662	321.69987
2.7995	3.428E-10	321.724451	0.1000042	0.0001021504	321.724451
2.99948	3.338E-10	321.748957	0.1000039	0.0001027319	321.748957
3.19949	3.367E-10	321.773463	0.100004	0.0001033167	321.773463
3.3995	6.14E-10	321.79798	0.1000046	0.0001039011	321.79798
3.59949	3.584E-10	321.822504	0.1000042	0.0001044839	321.822504
3.79948	3.004E-10	321.887408	0.1000001	0.000105134	321.887408
3.9995	3.337E-10	321.911938	0.1000001	0.000105715	321.911938
4.19949	3.291E-10	321.936483	0.1	0.000106294	321.936483
4.3995	3.496E-10	321.960986	0.0999999	0.000106872	321.960986
4.59951	3.541E-10	321.98558	0.1000001	0.000107449	321.98558
4.7995	3.004E-10	322.010115	0.1	0.000108021	322.010115
4.99949	3.53E-10	322.034656	0.1	0.000108592	322.034656
5.1995	3.653E-10	322.059177	0.1	0.000109159	322.059177
5.3995	3.519E-10	322.083736	0.0999998	0.000109725	322.083736
5.59949	3.617E-10	322.10825	0.0999999	0.000110285	322.10825
5.7995	3.758E-10	322.132791	0.0999999	0.000110843	322.132791
5.99948	3.726E-10	322.157306	0.0999999	0.000111398	322.157306
6.19948	3.771E-10	322.181816	0.1	0.000111948	322.181816
6.39947	3.812E-10	322.206345	0.1000001	0.000112498	322.206345
6.5995	3.968E-10	322.23086	0.0999997	0.000113045	322.23086
6.79948	3.86E-10	322.255365	0.0999999	0.000113587	322.255365
6.99949	3.804E-10	322.279883	0.0999999	0.000114125	322.279883
7.19949	4.051E-10	322.304392	0.1	0.000114662	322.304392
7.39948	3.969E-10	322.328917	0.0999997	0.000115192	322.328917
7.59948	3.452E-10	322.386611	0.1000001	0.000115717	322.386611
7.79949	3.799E-10	322.411155	0.0999998	0.000116246	322.411155
7.99948	3.877E-10	322.435679	0.1000001	0.00011677	322.435679
8.1995	3.917E-10	322.460194	0.1000002	0.000117289	322.460194
8.39949	4.028E-10	322.484768	0.1000001	0.000117807	322.484768
8.59949	4.098E-10	322.509288	0.0999998	0.000118317	322.509288
8.79949	3.961E-10	322.533807	0.0999999	0.000118832	322.533807
8.9995	4.087E-10	322.558325	0.0999999	0.00011934	322.558325
9.1995	4.174E-10	322.582853	0.0999999	0.000119845	322.582853
9.39949	4.097E-10	322.607376	0.1	0.000120353	322.607376
9.59949	4.281E-10	322.631902	0.0999998	0.000120856	322.631902
9.79948	4.368E-10	322.656406	0.1	0.000121357	322.656406
9.99948	4.221E-10	322.680913	0.0999998	0.000121855	322.680913
9.99948	3.765E-10	322.704269	0.1	0.000121855	322.704269
9.79949	2.988E-10	322.728826	0.0999998	0.000121358	322.728826
9.59949	2.368E-10	322.753349	0.0999999	0.000120859	322.753349
9.3995	2.16E-10	322.77785	0.1	0.000120359	322.77785
9.19951	2.066E-10	322.802365	0.1000002	0.000119855	322.802365
8.99951	1.794E-10	322.826884	0.1000001	0.000119348	322.826884
8.79949	1.865E-10	322.885745	0.0999998	0.000118834	322.885745
8.5995	1.663E-10	322.910329	0.0999999	0.000118312	322.910329
8.39949	1.249E-10	322.934851	0.1	0.00011779	322.934851
8.19949	9.98E-11	322.959381	0.0999998	0.000117261	322.959381
7.99949	1.046E-10	322.983938	0.1	0.000116732	322.983938
7.79949	9.69E-11	323.008476	0.0999999	0.0001162	323.008476
7.59949	8.2E-11	323.033	0.0999998	0.000115665	323.033
7.39949	6.6E-11	323.05754	0.0999998	0.00011513	323.05754
7.19951	6.22E-11	323.082074	0.0999997	0.000114591	323.082074
6.99948	5.68E-11	323.106598	0.0999998	0.000114047	323.106598
6.79951	3.19E-11	323.131212	0.1000001	0.000113502	323.131212
6.59949	3.19E-11	323.155751	0.1000002	0.000112954	323.155751
6.39948	2.98E-11	323.180255	0.0999997	0.000112401	323.180255
6.19952	1.217E-10	323.204788	0.0999998	0.000111848	323.204788
5.99949	2.58E-11	323.229312	0.1000002	0.00011129	323.229312
5.7995	1.42E-11	323.253824	0.1	0.00011073	323.253824
5.5995	-6.4E-12	323.278334	0.1	0.000110166	323.278334
5.39949	-1E-11	323.302845	0.1000003	0.0001096	323.302845
5.1995	-8.7E-12	323.327369	0.1000001	0.000109029	323.327369
4.9995	2.67E-11	323.383066	0.1000003	0.00010846	323.383066
4.7995	-8.32E-11	323.407622	0.0999999	0.000107885	323.407622
4.59951	-5.35E-11	323.43215	0.1000001	0.000107308	323.43215
4.39949	-5.59E-11	323.456674	0.1000001	0.000106727	323.456674
4.19947	-4.93E-11	323.481256	0.1	0.000106148	323.481256
3.9995	-5.15E-11	323.505764	0.1	0.000105565	323.505764
3.79949	-6.98E-11	323.530284	0.0999998	0.000104978	323.530284
3.5995	-7.92E-11	323.554825	0.1000002	0.000104393	323.554825
3.3995	-6.49E-11	323.57935	0.1	0.000103806	323.57935
3.19951	-8.71E-11	323.603884	0.1000001	0.000103221	323.603884
2.99949	-8.65E-11	323.628393	0.1	0.000102635	323.628393
2.7995	-8.21E-11	323.65293	0.1000001	0.00010205	323.65293
2.5995	-1.022E-10	323.677433	0.1	0.000101463	323.677433
2.3995	-1.028E-10	323.701955	0.0999998	0.000100879	323.701955
2.1995	-1.067E-10	323.72661	0.1	0.000100295	323.72661
1.99951	-1.082E-10	323.751138	0.0999998	9.9714E-05	323.751138
1.79949	-1.138E-10	323.775655	0.1	9.9133E-05	323.775655
1.59952	-1.312E-10	323.800212	0.1000001	9.8554E-05	323.800212
1.3995	-1.192E-10	323.824812	0.1000001	9.7976E-05	323.824812
1.19952	-7.82E-11	323.88251	0.1000001	9.7402E-05	323.88251
0.9995	-1.035E-10	323.907114	0.0999998	9.6828E-05	323.907114
0.79949	-1.194E-10	323.931647	0.1000001	9.6256E-05	323.931647
0.59951	-1.379E-10	323.956163	0.1	9.5686E-05	323.956163
0.39951	-1.391E-10	323.980745	0.1	9.5119E-05	323.980745
0.19951	-1.457E-10	324.005274	0.1000001	9.4553E-05	324.005274
-0.00048	-1.52E-10	324.029781	0.1	9.3992E-05	324.029781
-0.20052	-1.719E-10	324.054305	0.1	9.3435E-05	324.054305
-0.4005	-1.662E-10	324.078898	0.1000001	9.2886E-05	324.078898
-0.60048	-1.615E-10	324.103432	0.1000001	9.2345E-05	324.103432
-0.8005	-1.83E-10	324.12804	0.0999999	9.1819E-05	324.12804
-1.0005	-1.942E-10	324.15257	0.0999998	9.1302E-05	324.15257
-1.20049	-1.786E-10	324.177082	0.1	9.0795E-05	324.177082
-1.4005	-1.998E-10	324.201598	0.1000001	9.0295E-05	324.201598
-1.60048	-2.004E-10	324.226123	0.0999999	8.9799E-05	324.226123
-1.80051	-1.902E-10	324.250662	0.1000001	8.9305E-05	324.250662
-2.00048	-2.023E-10	324.275185	0.0999998	8.8811E-05	324.275185
-2.20052	-1.706E-10	324.303077	0.1000049	8.82409E-05	324.303077
-2.40048	-2.122E-10	324.32761	0.1000045	8.77465E-05	324.32761
-2.60049	-1.408E-10	324.391422	0.100005	8.7254E-05	324.391422
-2.80052	-1.97E-10	324.416016	0.1000044	8.6758E-05	324.416016
-3.0005	-1.876E-10	324.440575	0.1000053	8.6262E-05	324.440575
-3.2005	-2.103E-10	324.465094	0.1000062	8.57646E-05	324.465094
-3.4005	-2.145E-10	324.489658	0.1000044	8.52656E-05	324.489658
-3.60049	-2.157E-10	324.514169	0.1000049	8.47675E-05	324.514169
-3.8005	-2.209E-10	324.53869	0.1000051	8.42669E-05	324.53869
-4.00049	-2.266E-10	324.563214	0.1000049	8.37636E-05	324.563214
-4.20049	-2.452E-10	324.587746	0.1000056	8.32616E-05	324.587746
-4.40047	-9.02E-11	324.612258	0.1000052	8.27568E-05	324.612258
-4.60047	-2.131E-10	324.636788	0.1000053	8.22512E-05	324.636788
-4.80049	-2.37E-10	324.661313	0.1000047	8.17436E-05	324.661313
-5.00048	-2.369E-10	324.685827	0.1000064	8.12356E-05	324.685827
-5.20049	-2.41E-10	324.710345	0.1000058	8.07244E-05	324.710345
-5.40049	-2.528E-10	324.735008	0.1000054	8.02118E-05	324.735008
-5.60048	-2.566E-10	324.759535	0.1000059	7.96997E-05	324.759535
-5.8005	-2.463E-10	324.784071	0.1000064	7.91841E-05	324.784071
-6.0005	-2.649E-10	324.808578	0.1000058	7.86658E-05	324.808578
-6.20051	-3.312E-10	324.83312	0.1000061	7.81471E-05	324.83312
-6.40049	-2.059E-10	324.892175	0.1000061	7.76285E-05	324.892175
-6.60048	-2.573E-10	324.916743	0.1000055	7.7106E-05	324.916743
-6.80048	-2.774E-10	324.9413	0.1000056	7.65812E-05	324.9413
-7.00049	-2.627E-10	324.965811	0.1000052	7.60531E-05	324.965811
-7.20049	-2.762E-10	324.990398	0.1000062	7.55252E-05	324.990398
-7.40048	-2.879E-10	325.014918	0.1000051	7.49941E-05	325.014918
-7.60048	-2.88E-10	325.039464	0.1000057	7.44623E-05	325.039464
-7.80048	-2.802E-10	325.063995	0.1000051	7.39272E-05	325.063995
-8.00049	-2.848E-10	325.088541	0.1000053	7.33916E-05	325.088541
-8.20051	-3.045E-10	325.11306	0.1000061	7.28535E-05	325.11306
-8.40051	-3.032E-10	325.137598	0.100005	7.23108E-05	325.137598
-8.60049	-2.886E-10	325.162117	0.1000046	7.17699E-05	325.162117
-8.80048	-3.048E-10	325.186665	0.1000061	7.12255E-05	325.186665
-9.0005	-3.082E-10	325.211173	0.100006	7.06773E-05	325.211173
-9.20048	-2.956E-10	325.235716	0.100006	7.01296E-05	325.235716
-9.4005	-3.119E-10	325.260221	0.1000058	6.95783E-05	325.260221
-9.60048	-3.182E-10	325.284752	0.1000059	6.90263E-05	325.284752
-9.80048	-3.101E-10	325.309257	0.1000061	6.84748E-05	325.309257
-10.00048	-3.253E-10	325.333787	0.1000068	6.79201E-05	325.333787
-10.20051	-2.743E-10	325.393546	0.1000059	6.73702E-05	325.393546
-10.40048	-2.918E-10	325.41811	0.1000057	6.6812E-05	325.41811
-10.6005	-3.076E-10	325.442736	0.1000065	6.62501E-05	325.442736
-10.80049	-3.3E-10	325.467253	0.1000064	6.56852E-05	325.467253
-11.00048	-3.228E-10	325.491846	0.1000065	6.51211E-05	325.491846
-11.20049	-3.135E-10	325.516358	0.1000068	6.45537E-05	325.516358
-11.4005	-3.365E-10	325.540897	0.1000062	6.39824E-05	325.540897
-11.60047	-3.324E-10	325.56542	0.1000061	6.341E-05	325.56542
-11.80048	-3.283E-10	325.589971	0.1000067	6.28353E-05	325.589971
-12.00048	-3.335E-10	325.614478	0.1000069	6.22592E-05	325.614478
