#scan	iMeasureCycle=1	iMux=0	time=0.02	N=222	LocalTime=22/06/2023 07:56:51
#VGate(V)	IGate(A)	time(s)	VDrain(V)	IDrain(A)	time(s)
-12.00047	-3.1554E-09	0.045883	0.1000071	6.70679E-05	0.045883
-11.80049	-2.9602E-09	0.070751	0.1000066	6.76315E-05	0.070751
-11.60051	-1.1318E-09	0.095288	0.1000066	6.81945E-05	0.095288
-11.40052	-5.097E-10	0.119813	0.1000062	6.87545E-05	0.119813
-11.20051	-3.473E-10	0.144324	0.1000062	6.93105E-05	0.144324
-11.0005	-2.216E-10	0.168834	0.1000067	6.98662E-05	0.168834
-10.8005	-1.691E-10	0.193345	0.1000065	7.04184E-05	0.193345
-10.60051	-1.05E-10	0.21785	0.1000053	7.09663E-05	0.21785
-10.4005	-9.94E-11	0.242365	0.1000062	7.15151E-05	0.242365
-10.20049	-5.92E-11	0.266946	0.1000053	7.20581E-05	0.266946
-10.00051	-1.72E-11	0.291474	0.1000063	7.26032E-05	0.291474
-9.80047	-2.06E-11	0.315993	0.1000069	7.31443E-05	0.315993
-9.6005	-1.48E-11	0.340499	0.1000056	7.3683E-05	0.340499
-9.4005	1.366E-10	0.365021	0.1000055	7.42207E-05	0.365021
-9.20049	5.76E-11	0.389637	0.1000065	7.47559E-05	0.389637
-9.00047	5.08E-11	0.414144	0.1000058	7.52831E-05	0.414144
-8.8005	5.4E-11	0.438679	0.1000061	7.58117E-05	0.438679
-8.60051	7.07E-11	0.463198	0.1000059	7.63339E-05	0.463198
-8.40049	7.56E-11	0.487825	0.1000065	7.68552E-05	0.487825
-8.2005	7.35E-11	0.512364	0.1000061	7.73759E-05	0.512364
-8.00048	9.73E-11	0.536895	0.1000058	7.78936E-05	0.536895
-7.80047	9.88E-11	0.561414	0.1000061	7.84076E-05	0.561414
-7.60053	6.7E-11	0.610109	0.1000057	7.89184E-05	0.610109
-7.40051	-4.7E-12	0.634627	0.1000055	7.94328E-05	0.634627
-7.20049	9.22E-11	0.659159	0.1000054	7.9943E-05	0.659159
-7.00048	1.069E-10	0.683671	0.1000051	8.04512E-05	0.683671
-6.80048	1.35E-10	0.708276	0.1000052	8.09589E-05	0.708276
-6.6005	1.431E-10	0.732802	0.1000049	8.14631E-05	0.732802
-6.40052	1.235E-10	0.757342	0.1000046	8.19671E-05	0.757342
-6.20052	1.456E-10	0.781876	0.1000059	8.24705E-05	0.781876
-6.00049	1.672E-10	0.806393	0.1000046	8.29693E-05	0.806393
-5.80047	1.575E-10	0.83091	0.1000041	8.34692E-05	0.83091
-5.6005	1.566E-10	0.855418	0.1000043	8.39652E-05	0.855418
-5.40049	1.908E-10	0.879925	0.1000049	8.44615E-05	0.879925
-5.2005	1.775E-10	0.904454	0.1000051	8.49555E-05	0.904454
-5.00053	1.821E-10	0.928967	0.1000046	8.54479E-05	0.928967
-4.8005	1.93E-10	0.953528	0.1000044	8.59394E-05	0.953528
-4.60049	1.906E-10	0.978042	0.1000049	8.64296E-05	0.978042
-4.40051	2.048E-10	1.002914	0.1000048	8.69197E-05	1.002914
-4.20053	1.999E-10	1.027453	0.1000052	8.74063E-05	1.027453
-4.0005	2.157E-10	1.051954	0.1000048	8.78927E-05	1.051954
-3.80051	1.579E-10	1.111541	0.100004	8.83744E-05	1.111541
-3.60048	1.953E-10	1.136045	0.1000044	8.88593E-05	1.136045
-3.40053	2.187E-10	1.16058	0.1000043	8.93437E-05	1.16058
-3.20051	2.128E-10	1.185106	0.1000042	8.98261E-05	1.185106
-3.00049	2.162E-10	1.209681	0.1000039	9.03059E-05	1.209681
-2.80052	2.361E-10	1.234196	0.1000042	9.0787E-05	1.234196
-2.60049	2.409E-10	1.258718	0.1000048	9.12679E-05	1.258718
-2.40049	2.322E-10	1.283257	0.1000049	9.17459E-05	1.283257
-2.20051	2.323E-10	1.307804	0.1000037	9.2222E-05	1.307804
-2.00051	2.69E-10	1.332307	0.1000043	9.26991E-05	1.332307
-1.80052	2.566E-10	1.356857	0.1000044	9.31771E-05	1.356857
-1.60052	2.507E-10	1.381365	0.1000042	9.36577E-05	1.381365
-1.40049	2.727E-10	1.405909	0.1000045	9.41423E-05	1.405909
-1.20049	2.723E-10	1.430429	0.1000037	9.46331E-05	1.430429
-1.0005	2.669E-10	1.454949	0.100004	9.51339E-05	1.454949
-0.80051	2.771E-10	1.47947	0.1000042	9.56416E-05	1.47947
-0.60048	2.877E-10	1.504332	0.1000037	9.61621E-05	1.504332
-0.40052	2.928E-10	1.528854	0.1000037	9.66902E-05	1.528854
-0.20053	2.797E-10	1.553374	0.1000036	9.72233E-05	1.553374
-0.00051	2.533E-10	1.613129	0.1000035	9.77553E-05	1.613129
0.19948	2.706E-10	1.637636	0.1000037	9.82968E-05	1.637636
0.39949	2.773E-10	1.662186	0.100004	9.88429E-05	1.662186
0.5995	2.977E-10	1.686717	0.1000038	9.93884E-05	1.686717
0.79947	3.02E-10	1.711289	0.1000037	9.99366E-05	1.711289
0.99949	3.032E-10	1.735791	0.1000035	0.000100486	1.735791
1.1995	2.918E-10	1.760363	0.1000032	0.0001010365	1.760363
1.39951	4.737E-10	1.784878	0.1000031	0.000101588	1.784878
1.5995	3.377E-10	1.80941	0.1000035	0.0001021416	1.80941
1.79947	3.26E-10	1.833916	0.1000041	0.0001026978	1.833916
1.99949	3.384E-10	1.858419	0.1000043	0.0001032559	1.858419
2.1995	3.437E-10	1.88294	0.100003	0.0001038131	1.88294
2.39951	3.336E-10	1.907462	0.1000039	0.0001043728	1.907462
2.59951	3.17E-10	1.937019	0.1000001	0.000105009	1.937019
2.79949	3.347E-10	1.961593	0.1000002	0.000105569	1.961593
2.99949	3.458E-10	1.986161	0.0999998	0.000106128	1.986161
3.19951	3.579E-10	2.010692	0.0999999	0.000106689	2.010692
3.39948	1.801E-10	2.035221	0.1	0.000107249	2.035221
3.5995	3.419E-10	2.059732	0.0999998	0.000107807	2.059732
3.79947	2.861E-10	2.117308	0.1	0.000108361	2.117308
3.99948	3.255E-10	2.141845	0.1000002	0.00010892	2.141845
4.19947	3.431E-10	2.166357	0.1	0.000109478	2.166357
4.39948	3.645E-10	2.19087	0.0999999	0.000110032	2.19087
4.59951	3.538E-10	2.215424	0.0999999	0.000110584	2.215424
4.7995	3.505E-10	2.239938	0.0999999	0.000111133	2.239938
4.99949	3.767E-10	2.264454	0.0999999	0.000111682	2.264454
5.19949	3.666E-10	2.289037	0.0999998	0.00011223	2.289037
5.39949	3.57E-10	2.313575	0.0999999	0.000112774	2.313575
5.5995	3.858E-10	2.338082	0.0999999	0.000113313	2.338082
5.79949	3.779E-10	2.362605	0.0999999	0.000113849	2.362605
5.9995	3.755E-10	2.387119	0.0999999	0.000114384	2.387119
6.19948	3.802E-10	2.411731	0.1	0.000114912	2.411731
6.39949	3.957E-10	2.436237	0.1	0.000115441	2.436237
6.59951	3.924E-10	2.460756	0.1	0.000115968	2.460756
6.7995	3.857E-10	2.485438	0.1000001	0.000116489	2.485438
6.99947	3.958E-10	2.51007	0.1	0.00011701	2.51007
7.19949	4.081E-10	2.534592	0.0999998	0.000117525	2.534592
7.39946	3.976E-10	2.559094	0.1	0.000118037	2.559094
7.59948	3.543E-10	2.616391	0.0999999	0.000118544	2.616391
7.7995	3.716E-10	2.640907	0.1000001	0.00011905	2.640907
7.99948	3.87E-10	2.665421	0.1000001	0.000119558	2.665421
8.19952	4.122E-10	2.689932	0.1	0.00012006	2.689932
8.3995	3.979E-10	2.714595	0.1000002	0.000120558	2.714595
8.59948	4.038E-10	2.739129	0.1	0.000121052	2.739129
8.79949	4.133E-10	2.763645	0.1000001	0.000121546	2.763645
8.9995	4.208E-10	2.788169	0.0999999	0.000122034	2.788169
9.19947	4.21E-10	2.81269	0.0999999	0.000122522	2.81269
9.39948	4.142E-10	2.837224	0.1	0.000123014	2.837224
9.59949	4.334E-10	2.861721	0.0999998	0.0001235	2.861721
9.7995	4.276E-10	2.886246	0.0999999	0.000123984	2.886246
9.99949	4.159E-10	2.910748	0.1	0.000124466	2.910748
9.99947	3.908E-10	2.93409	0.0999999	0.000124465	2.93409
9.7995	2.911E-10	2.958708	0.0999999	0.000123984	2.958708
9.59948	2.345E-10	2.983248	0.1000001	0.000123504	2.983248
9.39949	2.315E-10	3.007847	0.0999997	0.000123017	3.007847
9.19948	2.024E-10	3.032374	0.1	0.00012253	3.032374
8.9995	1.77E-10	3.056891	0.1000001	0.000122042	3.056891
8.7995	1.818E-10	3.117846	0.1000001	0.000121544	3.117846
8.59948	1.551E-10	3.142371	0.1000001	0.000121042	3.142371
8.39952	1.244E-10	3.166894	0.1	0.000120539	3.166894
8.1995	3.708E-10	3.191401	0.1	0.00012003	3.191401
7.99949	1.186E-10	3.21596	0.1	0.000119518	3.21596
7.79952	9.56E-11	3.240492	0.1000001	0.000119006	3.240492
7.5995	8.47E-11	3.26501	0.1	0.00011849	3.26501
7.3995	7.32E-11	3.289599	0.0999999	0.000117972	3.289599
7.19949	6.28E-11	3.314121	0.1000001	0.000117453	3.314121
6.9995	5.22E-11	3.338656	0.1	0.00011693	3.338656
6.79951	2.96E-11	3.363157	0.1	0.000116404	3.363157
6.59951	4.76E-11	3.387674	0.0999999	0.000115872	3.387674
6.39949	2.78E-11	3.412186	0.0999999	0.000115343	3.412186
6.1995	-1.023E-10	3.436718	0.0999999	0.000114808	3.436718
5.99951	-1.6E-11	3.461303	0.1	0.000114273	3.461303
5.7995	-1.9E-12	3.485822	0.0999998	0.000113732	3.485822
5.59952	-2.19E-11	3.510688	0.1000001	0.000113189	3.510688
5.3995	-2.53E-11	3.5352	0.1000002	0.000112645	3.5352
5.19951	-2.49E-11	3.559734	0.0999999	0.000112094	3.559734
4.99951	1.52E-11	3.619371	0.1000002	0.000111547	3.619371
4.7995	-3.13E-11	3.643916	0.0999999	0.000110994	3.643916
4.59952	-2.25E-11	3.668438	0.1000001	0.000110439	3.668438
4.3995	-3.68E-11	3.692968	0.0999999	0.000109879	3.692968
4.19948	-5.41E-11	3.717534	0.1000001	0.000109319	3.717534
3.99951	-6.23E-11	3.742071	0.1	0.000108761	3.742071
3.7995	-5.75E-11	3.766584	0.1	0.000108199	3.766584
3.59952	-5.76E-11	3.791098	0.1	0.000107635	3.791098
3.39951	-8.92E-11	3.815623	0.0999999	0.000107072	3.815623
3.19949	-7.67E-11	3.840157	0.1	0.000106508	3.840157
2.99949	-7.96E-11	3.864662	0.0999999	0.000105943	3.864662
2.79949	-9.9E-11	3.8892	0.1	0.000105379	3.8892
2.59953	-1.053E-10	3.913802	0.1000001	0.000104816	3.913802
2.39949	-9.59E-11	3.938347	0.0999998	0.000104255	3.938347
2.1995	-1.204E-10	3.962918	0.1000002	0.000103691	3.962918
1.9995	-1.157E-10	3.987462	0.0999999	0.000103132	3.987462
1.79948	-1.117E-10	4.012362	0.0999998	0.000102573	4.012362
1.59952	-1.269E-10	4.036897	0.0999998	0.000102016	4.036897
1.39951	-1.338E-10	4.061435	0.0999999	0.000101461	4.061435
1.1995	-7.81E-11	4.116783	0.1	0.000100908	4.116783
0.99953	-1.375E-10	4.141315	0.0999999	0.000100355	4.141315
0.79951	-1.221E-10	4.165847	0.1000001	9.9806E-05	4.165847
0.59952	-1.24E-10	4.190364	0.0999999	9.9255E-05	4.190364
0.39951	-1.517E-10	4.214899	0.0999999	9.8708E-05	4.214899
0.19951	-1.568E-10	4.239427	0.0999999	9.8161E-05	4.239427
-0.0005	-1.412E-10	4.263934	0.0999999	9.7618E-05	4.263934
-0.20049	-1.617E-10	4.28852	0.1000001	9.7081E-05	4.28852
-0.40049	-1.721E-10	4.313035	0.1000002	9.6548E-05	4.313035
-0.60049	-1.705E-10	4.337575	0.0999999	9.6024E-05	4.337575
-0.80051	-1.844E-10	4.362097	0.1	9.5511E-05	4.362097
-1.00051	-1.794E-10	4.386635	0.1000001	9.5007E-05	4.386635
-1.20051	-1.816E-10	4.411156	0.1000001	9.4512E-05	4.411156
-1.40049	-1.934E-10	4.435692	0.1	9.4025E-05	4.435692
-1.60047	-1.976E-10	4.460207	0.1	9.3545E-05	4.460207
-1.80052	-2.046E-10	4.484807	0.1000001	9.3068E-05	4.484807
-2.00049	-1.977E-10	4.509412	0.0999998	9.2591E-05	4.509412
-2.20049	-1.987E-10	4.533975	0.0999999	9.2114E-05	4.533975
-2.40052	-2.244E-10	4.558492	0.1	9.1637E-05	4.558492
-2.60047	-1.336E-10	4.620695	0.1	9.1162E-05	4.620695
-2.8005	-1.732E-10	4.645279	0.1000001	9.0681E-05	4.645279
-3.00049	-1.88E-10	4.669799	0.1000001	9.02E-05	4.669799
-3.20048	-2.075E-10	4.694322	0.1000001	8.9719E-05	4.694322
-3.40051	-2.063E-10	4.718889	0.1	8.9239E-05	4.718889
-3.60049	-2.144E-10	4.743415	0.0999999	8.8755E-05	4.743415
-3.80049	-2.244E-10	4.767929	0.0999999	8.8271E-05	4.767929
-4.00048	-2.24E-10	4.792435	0.1000001	8.7786E-05	4.792435
-4.20049	-2.246E-10	4.816946	0.0999999	8.7299E-05	4.816946
-4.4005	-3.558E-10	4.844761	0.1000046	8.67318E-05	4.844761
-4.6005	-2.474E-10	4.869299	0.1000047	8.62437E-05	4.869299
-4.80048	-2.58E-10	4.893814	0.1000058	8.57528E-05	4.893814
-5.0005	-2.534E-10	4.918354	0.1000051	8.52606E-05	4.918354
-5.20049	-2.551E-10	4.942876	0.1000043	8.47668E-05	4.942876
-5.40049	-2.614E-10	4.967469	0.1000051	8.42705E-05	4.967469
-5.60047	-2.656E-10	4.992071	0.1000054	8.3775E-05	4.992071
-5.80048	-2.531E-10	5.01663	0.1000054	8.32753E-05	5.01663
-6.00049	-2.669E-10	5.04117	0.1000051	8.27758E-05	5.04117
-6.20048	-2.741E-10	5.065697	0.1000052	8.22743E-05	5.065697
-6.40049	-2.175E-10	5.126966	0.100005	8.17721E-05	5.126966
-6.60047	-2.377E-10	5.151507	0.1000046	8.12653E-05	5.151507
-6.80049	-2.611E-10	5.176031	0.1000051	8.07582E-05	5.176031
-7.00052	-2.792E-10	5.200558	0.1000053	8.02492E-05	5.200558
-7.20049	-2.735E-10	5.225141	0.1000057	7.97378E-05	5.225141
-7.4005	-2.65E-10	5.249675	0.1000056	7.92257E-05	5.249675
-7.6005	-2.846E-10	5.274184	0.1000057	7.8711E-05	5.274184
-7.80048	-2.973E-10	5.298789	0.1000055	7.81927E-05	5.298789
-8.00049	-2.755E-10	5.323301	0.1000054	7.76729E-05	5.323301
-8.2005	-2.904E-10	5.347846	0.1000061	7.71511E-05	5.347846
-8.4005	-3.038E-10	5.372366	0.1000061	7.66274E-05	5.372366
-8.60048	-2.915E-10	5.396893	0.1000058	7.61018E-05	5.396893
-8.80048	-3.026E-10	5.421406	0.1000063	7.55741E-05	5.421406
-9.00051	-3.064E-10	5.44593	0.1000056	7.5045E-05	5.44593
-9.20049	-3.106E-10	5.470449	0.1000058	7.45127E-05	5.470449
-9.40049	-3.067E-10	5.494933	0.1000051	7.39776E-05	5.494933
-9.60049	-3.127E-10	5.519473	0.1000062	7.34434E-05	5.519473
-9.80049	-3.284E-10	5.543997	0.1000068	7.29101E-05	5.543997
-10.00048	-3.171E-10	5.568515	0.1000056	7.23705E-05	5.568515
-10.20049	-2.823E-10	5.625757	0.1000063	7.1839E-05	5.625757
-10.40047	-2.831E-10	5.650301	0.1000055	7.12956E-05	5.650301
-10.6005	-3.029E-10	5.674828	0.1000056	7.0751E-05	5.674828
-10.80049	-3.239E-10	5.699355	0.1000071	7.02038E-05	5.699355
-11.0005	-3.266E-10	5.723927	0.1000064	6.96544E-05	5.723927
-11.20049	-3.11E-10	5.748494	0.1000066	6.91017E-05	5.748494
-11.40047	-3.357E-10	5.773031	0.1000067	6.85474E-05	5.773031
-11.60049	-3.442E-10	5.797539	0.1000059	6.79899E-05	5.797539
-11.80048	-3.397E-10	5.822071	0.1000059	6.74303E-05	5.822071
-12.00048	-3.353E-10	5.846544	0.1000062	6.68693E-05	5.846544
#scan	iMeasureCycle=2	iMux=0	time=279.783	N=222	LocalTime=22/06/2023 08:01:31
#VGate(V)	IGate(A)	time(s)	VDrain(V)	IDrain(A)	time(s)
-12.00048	-6.21E-11	279.790486	0.1000062	6.69319E-05	279.790486
-11.80049	-2.54E-11	279.815423	0.1000063	6.74963E-05	279.815423
-11.60052	6E-12	279.841072	0.1000069	6.8058E-05	279.841072
-11.40051	3.47E-11	279.865612	0.1000067	6.86175E-05	279.865612
-11.20049	4.37E-11	279.890144	0.1000061	6.91743E-05	279.890144
-11.00049	5.36E-11	279.914657	0.1000063	6.97294E-05	279.914657
-10.80047	6.42E-11	279.939173	0.1000064	7.02815E-05	279.939173
-10.60051	9.08E-11	279.963777	0.1000061	7.08317E-05	279.963777
-10.40047	9E-11	279.988308	0.100006	7.13806E-05	279.988308
-10.20051	7.78E-11	280.012938	0.1000058	7.19241E-05	280.012938
-10.00048	1.085E-10	280.037472	0.1000055	7.24678E-05	280.037472
-9.80049	1.222E-10	280.062094	0.1000063	7.30107E-05	280.062094
-9.60051	1.125E-10	280.086621	0.1000057	7.35502E-05	280.086621
-9.4005	1.128E-10	280.111142	0.100006	7.4089E-05	280.111142
-9.2005	1.341E-10	280.13565	0.1000058	7.46233E-05	280.13565
-9.00049	1.317E-10	280.160243	0.1000056	7.51528E-05	280.160243
-8.80049	1.466E-10	280.184769	0.1000056	7.56803E-05	280.184769
-8.60052	1.417E-10	280.2093	0.1000055	7.62054E-05	280.2093
-8.4005	1.434E-10	280.233813	0.1000063	7.67286E-05	280.233813
-8.20051	1.52E-10	280.258339	0.1000051	7.72476E-05	280.258339
-8.00049	1.601E-10	280.282858	0.1000054	7.77678E-05	280.282858
-7.8005	1.81E-10	280.307372	0.1000053	7.82835E-05	280.307372
-7.60052	1.531E-10	280.353835	0.1000058	7.8797E-05	280.353835
-7.40049	1.767E-10	280.378458	0.1000053	7.93105E-05	280.378458
-7.20047	1.842E-10	280.402981	0.1000064	7.98245E-05	280.402981
-7.00051	1.76E-10	280.427516	0.1000061	8.03337E-05	280.427516
-6.80048	1.928E-10	280.452072	0.100006	8.08422E-05	280.452072
-6.60051	1.861E-10	280.47662	0.1000054	8.13491E-05	280.47662
-6.40049	1.965E-10	280.501177	0.1000056	8.18533E-05	280.501177
-6.20052	2.091E-10	280.525787	0.100005	8.23575E-05	280.525787
-6.00049	1.995E-10	280.550305	0.1000058	8.28587E-05	280.550305
-5.80049	1.965E-10	280.574829	0.1000058	8.33588E-05	280.574829
-5.60051	2.054E-10	280.599344	0.1000044	8.38561E-05	280.599344
-5.40052	2.257E-10	280.623853	0.1000052	8.43535E-05	280.623853
-5.20049	2.177E-10	280.648374	0.1000052	8.48483E-05	280.648374
-5.00049	2.108E-10	280.672905	0.1000054	8.53411E-05	280.672905
-4.80047	2.267E-10	280.697414	0.1000049	8.58343E-05	280.697414
-4.60049	2.293E-10	280.721944	0.1000049	8.63262E-05	280.721944
-4.4005	2.27E-10	280.746456	0.1000055	8.68151E-05	280.746456
-4.20047	2.332E-10	280.770977	0.1000056	8.73021E-05	280.770977
-4.00052	7.8E-12	280.795489	0.1000049	8.77889E-05	280.795489
-3.80049	1.699E-10	280.855606	0.1000045	8.82717E-05	280.855606
-3.6005	2.073E-10	280.880149	0.1000048	8.87566E-05	280.880149
-3.40052	2.505E-10	280.904674	0.100004	8.92397E-05	280.904674
-3.20049	2.273E-10	280.929182	0.100005	8.97235E-05	280.929182
-3.00049	2.108E-10	280.953762	0.100004	9.02043E-05	280.953762
-2.80049	2.6E-10	280.978293	0.1000039	9.06851E-05	280.978293
-2.6005	2.543E-10	281.002812	0.1000038	9.11648E-05	281.002812
-2.4005	2.423E-10	281.027706	0.1000043	9.16448E-05	281.027706
-2.2005	2.412E-10	281.052243	0.1000053	9.21241E-05	281.052243
-2.0005	2.625E-10	281.076752	0.1000036	9.25998E-05	281.076752
-1.80052	2.715E-10	281.101281	0.1000044	9.30793E-05	281.101281
-1.6005	2.656E-10	281.125802	0.1000047	9.35606E-05	281.125802
-1.4005	2.613E-10	281.150328	0.1000037	9.40438E-05	281.150328
-1.20051	2.676E-10	281.174854	0.1000039	9.45344E-05	281.174854
-1.00051	2.783E-10	281.199387	0.1000043	9.50361E-05	281.199387
-0.80049	2.81E-10	281.223906	0.1000046	9.55462E-05	281.223906
-0.6005	2.969E-10	281.248441	0.1000038	9.60633E-05	281.248441
-0.40051	2.773E-10	281.272973	0.100004	9.65913E-05	281.272973
-0.20051	2.854E-10	281.297507	0.1000043	9.71255E-05	281.297507
-0.00051	2.377E-10	281.357052	0.1000037	9.76586E-05	281.357052
0.19948	2.764E-10	281.38159	0.1000037	9.82034E-05	281.38159
0.39952	2.774E-10	281.406107	0.1000037	9.87479E-05	281.406107
0.5995	3E-10	281.430625	0.1000032	9.92944E-05	281.430625
0.79949	2.909E-10	281.455193	0.100004	9.98439E-05	281.455193
0.99949	2.909E-10	281.479715	0.1000032	0.0001003932	281.479715
1.1995	3.127E-10	281.504282	0.100004	0.0001009453	281.504282
1.3995	3.127E-10	281.529153	0.1000033	0.0001014985	281.529153
1.5995	2.933E-10	281.553694	0.1000042	0.0001020537	281.553694
1.79948	3.133E-10	281.578213	0.1000039	0.0001026079	281.578213
1.99948	3.247E-10	281.602747	0.1000034	0.0001031671	281.602747
2.19949	3.251E-10	281.627265	0.1000032	0.000103725	281.627265
2.39949	3.179E-10	281.65179	0.1000038	0.0001042866	281.65179
2.59948	3.022E-10	281.681424	0.1	0.000104921	281.681424
2.79948	3.31E-10	281.705957	0.1000002	0.00010548	281.705957
2.99946	3.207E-10	281.730473	0.1	0.000106044	281.730473
3.19949	6.051E-10	281.754976	0.0999999	0.000106605	281.754976
3.3995	3.597E-10	281.779497	0.1000001	0.000107165	281.779497
3.59949	3.561E-10	281.804015	0.1000001	0.000107725	281.804015
3.79948	2.978E-10	281.861564	0.0999998	0.000108284	281.861564
3.9995	3.303E-10	281.886111	0.0999999	0.000108844	281.886111
4.1995	3.393E-10	281.910642	0.1000001	0.0001094	281.910642
4.39947	3.343E-10	281.935175	0.1000001	0.000109958	281.935175
4.5995	3.534E-10	281.959745	0.0999999	0.000110512	281.959745
4.7995	3.606E-10	281.984249	0.1	0.000111064	281.984249
4.99949	3.576E-10	282.008767	0.0999998	0.000111612	282.008767
5.19947	3.58E-10	282.033336	0.1000001	0.00011216	282.033336
5.39949	3.524E-10	282.057951	0.1	0.000112702	282.057951
5.59949	3.664E-10	282.082478	0.0999998	0.000113243	282.082478
5.7995	3.797E-10	282.107018	0.1	0.000113781	282.107018
5.99948	3.638E-10	282.131525	0.0999999	0.000114317	282.131525
6.19948	3.52E-10	282.156105	0.0999999	0.000114848	282.156105
6.39949	3.847E-10	282.180631	0.1	0.000115377	282.180631
6.5995	3.853E-10	282.205164	0.0999999	0.000115905	282.205164
6.79949	2.235E-10	282.229666	0.1	0.000116428	282.229666
6.99947	3.57E-10	282.254194	0.1000003	0.000116948	282.254194
7.1995	3.729E-10	282.278711	0.0999999	0.000117467	282.278711
7.3995	3.866E-10	282.303323	0.1	0.000117979	282.303323
7.59949	3.442E-10	282.360348	0.1	0.000118486	282.360348
7.79947	3.685E-10	282.384872	0.1	0.000118995	282.384872
7.99948	3.579E-10	282.409411	0.0999998	0.000119499	282.409411
8.19947	3.877E-10	282.433931	0.0999999	0.000120002	282.433931
8.39951	3.819E-10	282.458513	0.0999998	0.000120503	282.458513
8.5995	3.862E-10	282.483024	0.1	0.000120997	282.483024
8.7995	3.981E-10	282.5076	0.1	0.000121491	282.5076
8.99949	3.973E-10	282.532465	0.1	0.000121983	282.532465
9.19949	3.953E-10	282.556977	0.0999999	0.000122471	282.556977
9.39949	4.037E-10	282.581503	0.0999999	0.000122963	282.581503
9.5995	4.211E-10	282.60612	0.1	0.000123451	282.60612
9.7995	4.135E-10	282.630641	0.1000002	0.000123937	282.630641
9.99948	3.919E-10	282.655157	0.1	0.000124417	282.655157
9.99947	3.641E-10	282.678496	0.0999999	0.000124419	282.678496
9.79952	2.864E-10	282.703009	0.0999999	0.000123939	282.703009
9.59949	2.315E-10	282.727524	0.1	0.000123456	282.727524
9.39949	2.077E-10	282.75203	0.0999999	0.000122973	282.75203
9.19948	1.866E-10	282.776529	0.1000002	0.000122486	282.776529
8.9995	1.57E-10	282.801045	0.0999999	0.000121998	282.801045
8.7995	1.759E-10	282.862259	0.0999998	0.000121499	282.862259
8.59951	1.5E-10	282.886778	0.0999999	0.000120999	282.886778
8.39948	1.172E-10	282.911318	0.0999999	0.000120493	282.911318
8.1995	7.98E-11	282.935824	0.1000001	0.000119984	282.935824
7.9995	9.6E-11	282.960407	0.1000001	0.000119474	282.960407
7.79949	9.11E-11	282.984928	0.0999999	0.00011896	282.984928
7.59949	5.8E-11	283.009445	0.0999998	0.000118444	283.009445
7.39948	4.09E-11	283.03433	0.0999998	0.000117926	283.03433
7.19952	6.23E-11	283.058849	0.1000001	0.000117406	283.058849
6.99948	4.18E-11	283.083361	0.0999999	0.000116884	283.083361
6.79952	2.47E-11	283.107868	0.0999998	0.000116357	283.107868
6.59952	1.65E-11	283.13239	0.0999999	0.000115828	283.13239
6.39952	2.819E-10	283.15694	0.1	0.000115296	283.15694
6.1995	2.36E-11	283.181462	0.1	0.000114764	283.181462
5.99949	5.9E-12	283.205988	0.1	0.000114227	283.205988
5.79949	6.8E-12	283.230508	0.1	0.000113686	283.230508
5.5995	-2.11E-11	283.255011	0.1000001	0.000113142	283.255011
5.3995	-1.76E-11	283.279537	0.1	0.000112596	283.279537
5.19949	-6.6E-12	283.304047	0.0999999	0.000112049	283.304047
4.9995	2.06E-11	283.359227	0.1	0.000111498	283.359227
4.79951	-2.2E-12	283.383756	0.1000002	0.000110945	283.383756
4.5995	-3.62E-11	283.408283	0.0999999	0.000110389	283.408283
4.39949	-4.68E-11	283.432801	0.0999998	0.00010983	283.432801
4.1995	-4.2E-11	283.457388	0.1	0.00010927	283.457388
3.99951	-5.54E-11	283.481906	0.1	0.000108711	283.481906
3.79951	-6.15E-11	283.506493	0.1	0.000108149	283.506493
3.59952	-8.29E-11	283.531093	0.0999999	0.000107584	283.531093
3.39951	-7.2E-11	283.555639	0.0999999	0.000107021	283.555639
3.19952	-8.19E-11	283.580156	0.0999999	0.000106458	283.580156
2.9995	-8.17E-11	283.604691	0.1000001	0.000105894	283.604691
2.79949	-8.54E-11	283.629209	0.1	0.000105329	283.629209
2.59952	-3.324E-10	283.653747	0.1	0.000104767	283.653747
2.3995	-1.233E-10	283.678266	0.1	0.000104206	283.678266
2.1995	-1.098E-10	283.702812	0.1	0.000103641	283.702812
1.99949	-1.106E-10	283.727333	0.1000001	0.000103081	283.727333
1.79949	-1.198E-10	283.751866	0.1	0.000102524	283.751866
1.5995	-1.492E-10	283.776383	0.0999999	0.000101966	283.776383
1.39952	-1.197E-10	283.800899	0.1	0.000101412	283.800899
1.19949	-9.19E-11	283.849122	0.0999997	0.000100858	283.849122
0.99951	-1.225E-10	283.873729	0.0999999	0.000100305	283.873729
0.79948	-1.203E-10	283.89833	0.0999999	9.9755E-05	283.89833
0.59952	-1.435E-10	283.922877	0.0999998	9.9205E-05	283.922877
0.39952	-1.361E-10	283.949054	0.1	9.8658E-05	283.949054
0.19949	-1.571E-10	283.973589	0.0999999	9.8113E-05	283.973589
-0.0005	-1.575E-10	283.998107	0.0999998	9.757E-05	283.998107
-0.20051	-1.557E-10	284.022586	0.0999998	9.7031E-05	284.022586
-0.40048	-1.642E-10	284.047146	0.1000001	9.6497E-05	284.047146
-0.60049	-1.719E-10	284.071756	0.1	9.5976E-05	284.071756
-0.80051	-1.788E-10	284.096294	0.1	9.5462E-05	284.096294
-1.00052	-1.85E-10	284.120821	0.1000001	9.4959E-05	284.120821
-1.20049	-1.662E-10	284.145353	0.1	9.4466E-05	284.145353
-1.4005	-1.79E-10	284.169917	0.1	9.3981E-05	284.169917
-1.60048	-2.116E-10	284.19444	0.1	9.35E-05	284.19444
-1.80051	-1.963E-10	284.218956	0.1	9.3022E-05	284.218956
-2.0005	-1.83E-10	284.24347	0.0999999	9.2546E-05	284.24347
-2.2005	-2.083E-10	284.267983	0.0999999	9.2069E-05	284.267983
-2.40052	-2.146E-10	284.292502	0.0999998	9.1591E-05	284.292502
-2.60049	-2.124E-10	284.317047	0.0999998	9.1113E-05	284.317047
-2.80048	-1.591E-10	284.366867	0.1	9.0637E-05	284.366867
-3.00051	-2.098E-10	284.391409	0.1000001	9.0156E-05	284.391409
-3.20052	-2.057E-10	284.41595	0.1000001	8.9674E-05	284.41595
-3.40049	-2.1E-10	284.440494	0.1	8.9192E-05	284.440494
-3.60047	-2.028E-10	284.468401	0.1000044	8.86325E-05	284.468401
-3.80049	-2.252E-10	284.492932	0.1000043	8.8148E-05	284.492932
-4.00048	-2.264E-10	284.517473	0.100004	8.76633E-05	284.517473
-4.20048	-2.227E-10	284.542062	0.1000052	8.71774E-05	284.542062
-4.40049	-1.061E-10	284.566589	0.1000047	8.669E-05	284.566589
-4.60048	-2.328E-10	284.591103	0.1000055	8.62013E-05	284.591103
-4.80049	-2.303E-10	284.615639	0.1000052	8.57116E-05	284.615639
-5.00049	-2.337E-10	284.640162	0.1000049	8.52188E-05	284.640162
-5.20049	-2.368E-10	284.664693	0.1000059	8.47256E-05	284.664693
-5.40047	-2.478E-10	284.689198	0.1000055	8.42312E-05	284.689198
-5.60047	-2.511E-10	284.713725	0.1000056	8.37347E-05	284.713725
-5.80049	-2.615E-10	284.738244	0.100005	8.32369E-05	284.738244
-6.00049	-2.577E-10	284.762777	0.1000053	8.27373E-05	284.762777
-6.20051	-2.467E-10	284.787285	0.1000049	8.22353E-05	284.787285
-6.4005	-2.652E-10	284.811818	0.1000055	8.17316E-05	284.811818
-6.60048	-2.167E-10	284.871517	0.1000052	8.12278E-05	284.871517
-6.80048	-2.475E-10	284.896054	0.1000056	8.07206E-05	284.896054
-7.00047	-2.522E-10	284.920584	0.1000056	8.02114E-05	284.920584
-7.20048	-2.491E-10	284.945135	0.1000059	7.96999E-05	284.945135
-7.40049	-2.608E-10	284.969702	0.1000051	7.91869E-05	284.969702
-7.60049	-2.839E-10	284.994243	0.1000054	7.867E-05	284.994243
-7.80051	-2.675E-10	285.01885	0.1000057	7.81544E-05	285.01885
-8.0005	-2.791E-10	285.043447	0.1000058	7.7635E-05	285.043447
-8.20051	-4.204E-10	285.067971	0.1000054	7.71127E-05	285.067971
-8.40049	-2.958E-10	285.092498	0.1000052	7.65898E-05	285.092498
-8.60048	-3.106E-10	285.117106	0.1000056	7.60637E-05	285.117106
-8.80049	-2.979E-10	285.141625	0.1000056	7.55368E-05	285.141625
-9.00049	-2.741E-10	285.166225	0.1000057	7.50063E-05	285.166225
-9.20049	-3.145E-10	285.190747	0.1000059	7.44754E-05	285.190747
-9.40049	-3.251E-10	285.215293	0.1000059	7.39418E-05	285.215293
-9.60051	-2.985E-10	285.239815	0.1000057	7.34064E-05	285.239815
-9.80048	-3.072E-10	285.26436	0.1000052	7.28706E-05	285.26436
-10.0005	-3.132E-10	285.288876	0.1000066	7.23332E-05	285.288876
-10.2005	-3.195E-10	285.313409	0.1000061	7.1794E-05	285.313409
-10.40047	-2.711E-10	285.370363	0.1000056	7.12576E-05	285.370363
-10.60048	-3.233E-10	285.394877	0.1000062	7.07126E-05	285.394877
-10.80049	-2.877E-10	285.419489	0.1000058	7.01656E-05	285.419489
-11.00047	-3.103E-10	285.444002	0.1000066	6.96156E-05	285.444002
-11.2005	-3.265E-10	285.468641	0.1000066	6.90634E-05	285.468641
-11.40051	-3.117E-10	285.493159	0.1000068	6.85091E-05	285.493159
-11.60047	-3.283E-10	285.517758	0.1000055	6.79511E-05	285.517758
-11.80049	-3.218E-10	285.54236	0.1000065	6.73932E-05	285.54236
-12.00049	-3.191E-10	285.56686	0.1000063	6.68309E-05	285.56686
#scan	iMeasureCycle=3	iMux=0	time=319.818	N=222	LocalTime=22/06/2023 08:02:11
#VGate(V)	IGate(A)	time(s)	VDrain(V)	IDrain(A)	time(s)
-12.00048	-7.28E-11	319.825518	0.100007	6.68931E-05	319.825518
-11.80049	-3.19E-11	319.850398	0.1000065	6.74568E-05	319.850398
-11.60051	-4E-13	319.875995	0.100007	6.8019E-05	319.875995
-11.40051	4.35E-11	319.900583	0.1000066	6.85787E-05	319.900583
-11.20048	4.14E-11	319.925098	0.1000062	6.91355E-05	319.925098
-11.00047	3.91E-11	319.949634	0.100006	6.96907E-05	319.949634
-10.80051	7.53E-11	319.974161	0.1000074	7.02427E-05	319.974161
-10.6005	9.6E-11	319.998698	0.1000056	7.07913E-05	319.998698
-10.4005	7.88E-11	320.023206	0.100006	7.134E-05	320.023206
-10.20051	7.38E-11	320.047822	0.100006	7.1885E-05	320.047822
-10.0005	1.147E-10	320.072408	0.1000051	7.24281E-05	320.072408
-9.8005	1.199E-10	320.097015	0.1000064	7.29716E-05	320.097015
-9.60051	1.111E-10	320.121531	0.100006	7.35093E-05	320.121531
-9.40048	1.203E-10	320.146047	0.1000053	7.40471E-05	320.146047
-9.2005	1.154E-10	320.170569	0.1000053	7.45817E-05	320.170569
-9.00051	1.304E-10	320.195075	0.1000057	7.51117E-05	320.195075
-8.80048	1.477E-10	320.219592	0.1000061	7.56389E-05	320.219592
-8.6005	2.935E-10	320.244167	0.100006	7.61634E-05	320.244167
-8.4005	1.482E-10	320.268697	0.1000062	7.66861E-05	320.268697
-8.20049	1.557E-10	320.293217	0.1000063	7.72061E-05	320.293217
-8.00051	1.822E-10	320.317729	0.1000054	7.77253E-05	320.317729
-7.80047	1.723E-10	320.342282	0.1000053	7.8241E-05	320.342282
-7.6005	1.193E-10	320.388828	0.1000062	7.87553E-05	320.388828
-7.40048	1.604E-10	320.413358	0.1000055	7.92679E-05	320.413358
-7.20051	5.35E-11	320.437867	0.1000058	7.97809E-05	320.437867
-7.00051	1.805E-10	320.462388	0.1000051	8.029E-05	320.462388
-6.80049	1.646E-10	320.486958	0.1000051	8.07988E-05	320.486958
-6.6005	1.663E-10	320.511472	0.1000047	8.13053E-05	320.511472
-6.40048	1.976E-10	320.535984	0.1000047	8.181E-05	320.535984
-6.20051	2.111E-10	320.560493	0.1000048	8.23137E-05	320.560493
-6.00048	1.903E-10	320.585097	0.1000048	8.28148E-05	320.585097
-5.8005	1.8E-10	320.609638	0.1000051	8.33142E-05	320.609638
-5.6005	2.099E-10	320.634172	0.1000049	8.3812E-05	320.634172
-5.40051	2.274E-10	320.658728	0.1000054	8.43085E-05	320.658728
-5.20049	2.021E-10	320.68327	0.1000047	8.48025E-05	320.68327
-5.00048	2.011E-10	320.70779	0.100005	8.52948E-05	320.70779
-4.8005	2.288E-10	320.732317	0.1000049	8.57887E-05	320.732317
-4.60049	2.241E-10	320.756777	0.1000043	8.62797E-05	320.756777
-4.40049	2.18E-10	320.781324	0.1000044	8.67668E-05	320.781324
-4.20049	2.433E-10	320.805834	0.1000054	8.72559E-05	320.805834
-4.0005	2.191E-10	320.830358	0.1000047	8.77419E-05	320.830358
-3.8005	1.686E-10	320.890742	0.1000037	8.82241E-05	320.890742
-3.60051	2.324E-10	320.915311	0.1000044	8.87091E-05	320.915311
-3.40049	2.408E-10	320.939856	0.1000038	8.91928E-05	320.939856
-3.20049	2.239E-10	320.964376	0.1000041	8.96754E-05	320.964376
-3.0005	2.386E-10	320.988946	0.1000041	9.01566E-05	320.988946
-2.80049	2.529E-10	321.013535	0.1000045	9.06382E-05	321.013535
-2.60053	2.571E-10	321.038064	0.1000044	9.11164E-05	321.038064
-2.40049	2.498E-10	321.062682	0.1000043	9.15965E-05	321.062682
-2.20052	2.484E-10	321.087287	0.1000042	9.20747E-05	321.087287
-2.00051	2.557E-10	321.111832	0.100004	9.25511E-05	321.111832
-1.80051	2.598E-10	321.136349	0.1000041	9.30304E-05	321.136349
-1.6005	2.684E-10	321.160875	0.1000035	9.35093E-05	321.160875
-1.4005	2.825E-10	321.1854	0.1000043	9.39937E-05	321.1854
-1.2005	2.6E-10	321.209947	0.1000036	9.44836E-05	321.209947
-1.00051	2.685E-10	321.234534	0.1000042	9.49844E-05	321.234534
-0.80052	3.126E-10	321.259086	0.1000042	9.54935E-05	321.259086
-0.60049	2.854E-10	321.283609	0.1000035	9.60109E-05	321.283609
-0.40051	2.618E-10	321.308125	0.1000042	9.65386E-05	321.308125
-0.20051	2.978E-10	321.332635	0.1000044	9.70732E-05	321.332635
-0.0005	2.467E-10	321.392038	0.1000049	9.7608E-05	321.392038
0.19949	2.732E-10	321.416551	0.1000038	9.8151E-05	321.416551
0.3995	2.881E-10	321.441094	0.1000028	9.8694E-05	321.441094
0.5995	3.013E-10	321.465609	0.1000036	9.92429E-05	321.465609
0.79946	2.83E-10	321.490184	0.1000042	9.97927E-05	321.490184
0.99947	3.044E-10	321.514695	0.1000032	0.0001003417	321.514695
1.19948	3.2E-10	321.539219	0.1000036	0.0001008938	321.539219
1.39949	3.021E-10	321.563758	0.1000035	0.0001014467	321.563758
1.59951	2.833E-10	321.588401	0.1000032	0.0001020015	321.588401
1.79951	3.211E-10	321.612932	0.1000044	0.0001025572	321.612932
1.9995	3.279E-10	321.637463	0.1000036	0.0001031147	321.637463
2.1995	4.334E-10	321.661975	0.1000036	0.000103675	321.661975
2.39948	3.263E-10	321.686513	0.1000035	0.0001042343	321.686513
2.59951	2.766E-10	321.733509	0.0999997	0.000104869	321.733509
2.79949	3.291E-10	321.758207	0.0999998	0.000105429	321.758207
2.99948	3.355E-10	321.782713	0.0999998	0.000105992	321.782713
3.19948	3.213E-10	321.807235	0.0999998	0.000106552	321.807235
3.39949	1.783E-10	321.831748	0.0999998	0.000107113	321.831748
3.59949	2.619E-10	321.894141	0.1	0.000107667	321.894141
3.79949	3.321E-10	321.919431	0.0999999	0.000108231	321.919431
3.99948	3.148E-10	321.943979	0.1	0.000108792	321.943979
4.19948	2.969E-10	321.968496	0.1	0.000109349	321.968496
4.39948	3.41E-10	321.993034	0.0999999	0.000109906	321.993034
4.59949	3.489E-10	322.017595	0.0999999	0.000110461	322.017595
4.7995	3.353E-10	322.042114	0.1000001	0.000111014	322.042114
4.99948	3.339E-10	322.066631	0.1000002	0.000111565	322.066631
5.19948	3.535E-10	322.09123	0.1	0.000112112	322.09123
5.39948	3.589E-10	322.115783	0.1000001	0.000112655	322.115783
5.5995	3.691E-10	322.140291	0.1000001	0.000113197	322.140291
5.79949	3.546E-10	322.164824	0.0999999	0.000113736	322.164824
5.99948	3.613E-10	322.189347	0.0999999	0.000114271	322.189347
6.19948	3.682E-10	322.213873	0.0999999	0.000114805	322.213873
6.39948	3.833E-10	322.238368	0.0999998	0.000115334	322.238368
6.59949	3.852E-10	322.262941	0.0999999	0.000115861	322.262941
6.7995	3.715E-10	322.287419	0.0999999	0.000116382	322.287419
6.99947	3.685E-10	322.311956	0.1	0.000116903	322.311956
7.19948	3.89E-10	322.336463	0.0999999	0.000117419	322.336463
7.39948	3.33E-10	322.396075	0.0999999	0.000117929	322.396075
7.59949	3.605E-10	322.420605	0.0999999	0.000118441	322.420605
7.79949	3.771E-10	322.445132	0.0999999	0.00011895	322.445132
7.99947	3.649E-10	322.46965	0.0999999	0.000119458	322.46965
8.19947	3.75E-10	322.494238	0.1	0.000119959	322.494238
8.39948	4.052E-10	322.518747	0.1	0.00012046	322.518747
8.59947	4.004E-10	322.543265	0.1000001	0.000120955	322.543265
8.79949	3.759E-10	322.567759	0.0999999	0.000121449	322.567759
8.99948	3.928E-10	322.592373	0.0999999	0.000121942	322.592373
9.19949	4.096E-10	322.616907	0.1	0.00012243	322.616907
9.39948	4.17E-10	322.64144	0.1000002	0.000122924	322.64144
9.59949	3.96E-10	322.66594	0.0999998	0.000123409	322.66594
9.79948	3.941E-10	322.690562	0.0999999	0.000123896	322.690562
9.99947	4.325E-10	322.715075	0.1	0.000124378	322.715075
9.99947	3.618E-10	322.738433	0.0999999	0.000124377	322.738433
9.79949	2.66E-10	322.762941	0.0999999	0.000123899	322.762941
9.59949	2.465E-10	322.78747	0.0999998	0.000123415	322.78747
9.39951	2.02E-10	322.811988	0.1	0.000122932	322.811988
9.19948	1.751E-10	322.836498	0.1	0.000122441	322.836498
8.99949	2.058E-10	322.896973	0.1	0.000121951	322.896973
8.79951	1.609E-10	322.921519	0.1000001	0.000121458	322.921519
8.5995	1.158E-10	322.94604	0.0999999	0.000120955	322.94604
8.39949	9.59E-11	322.970559	0.0999999	0.000120451	322.970559
8.19949	1.11E-10	322.995073	0.1	0.000119941	322.995073
7.99949	1.002E-10	323.019582	0.1000001	0.000119428	323.019582
7.79949	6.97E-11	323.044095	0.0999998	0.000118915	323.044095
7.59948	2.97E-10	323.068613	0.1	0.0001184	323.068613
7.3995	7.02E-11	323.093228	0.1	0.000117882	323.093228
7.19948	6.29E-11	323.117779	0.1	0.000117361	323.117779
6.99948	4.67E-11	323.142294	0.1000001	0.000116836	323.142294
6.7995	3.68E-11	323.166816	0.1000002	0.00011631	323.166816
6.5995	2.97E-11	323.19134	0.0999999	0.00011578	323.19134
6.39949	2.16E-11	323.215878	0.0999998	0.000115249	323.215878
6.19949	-8.01E-11	323.240389	0.1	0.000114713	323.240389
5.9995	-1.72E-11	323.264962	0.0999999	0.000114174	323.264962
5.79949	-4.34E-11	323.289485	0.1000001	0.000113634	323.289485
5.59953	-6.3E-12	323.314021	0.1	0.000113091	323.314021
5.39948	-1.47E-11	323.338538	0.0999999	0.000112544	323.338538
5.1995	2.16E-11	323.398554	0.0999999	0.000111999	323.398554
4.99949	-2.24E-11	323.423156	0.1	0.000111446	323.423156
4.79949	-1.71E-11	323.447668	0.0999999	0.000110893	323.447668
4.5995	-4.39E-11	323.472195	0.1000002	0.000110334	323.472195
4.39948	-5.33E-11	323.496769	0.0999999	0.000109779	323.496769
4.19949	-3.53E-11	323.521297	0.1000003	0.000109217	323.521297
3.99952	-5.99E-11	323.545807	0.1	0.000108657	323.545807
3.79948	-8.21E-11	323.570318	0.1	0.000108095	323.570318
3.5995	-6.64E-11	323.594917	0.0999998	0.00010753	323.594917
3.3995	-5.84E-11	323.619489	0.1000001	0.000106967	323.619489
3.19952	-8.38E-11	323.644018	0.0999999	0.000106404	323.644018
2.99947	-1.05E-10	323.668554	0.1	0.000105839	323.668554
2.79949	-9.18E-11	323.693081	0.1	0.000105275	323.693081
2.5995	-8.48E-11	323.717613	0.1000001	0.000104712	323.717613
2.3995	-1.125E-10	323.742124	0.0999998	0.00010415	323.742124
2.1995	-1.154E-10	323.76665	0.0999999	0.000103588	323.76665
1.99951	-1.176E-10	323.791162	0.0999998	0.000103027	323.791162
1.7995	-1.252E-10	323.815673	0.0999999	0.000102468	323.815673
1.5995	-1.091E-10	323.840203	0.1000001	0.000101911	323.840203
1.3995	-6.11E-11	323.900058	0.1000001	0.000101359	323.900058
1.1995	-1.218E-10	323.924631	0.1	0.000100801	323.924631
0.9995	-1.483E-10	323.949152	0.0999998	0.000100249	323.949152
0.79948	-1.178E-10	323.973675	0.1	9.9698E-05	323.973675
0.59952	-1.248E-10	323.998245	0.0999999	9.915E-05	323.998245
0.39951	-1.553E-10	324.02279	0.0999998	9.8601E-05	324.02279
0.19949	-1.489E-10	324.047305	0.1	9.8054E-05	324.047305
-0.0005	-1.473E-10	324.071914	0.1000001	9.7512E-05	324.071914
-0.2005	-1.602E-10	324.096497	0.0999999	9.6972E-05	324.096497
-0.40049	-1.579E-10	324.121046	0.1000001	9.644E-05	324.121046
-0.60047	-1.657E-10	324.14557	0.0999998	9.5916E-05	324.14557
-0.8005	-1.818E-10	324.170099	0.0999999	9.5404E-05	324.170099
-1.00052	-1.898E-10	324.194617	0.0999999	9.4899E-05	324.194617
-1.2005	-1.686E-10	324.219141	0.0999999	9.4406E-05	324.219141
-1.40051	-1.76E-10	324.24366	0.1	9.3919E-05	324.24366
-1.6005	-2.042E-10	324.268225	0.1000002	9.3438E-05	324.268225
-1.80051	-2.068E-10	324.292735	0.1000001	9.2961E-05	324.292735
-2.00051	-1.789E-10	324.317257	0.0999999	9.2484E-05	324.317257
-2.2005	-2.004E-10	324.34177	0.0999998	9.2007E-05	324.34177
-2.40051	-1.537E-10	324.401947	0.0999999	9.1532E-05	324.401947
-2.60049	-1.87E-10	324.426488	0.1	9.1054E-05	324.426488
-2.8005	-1.944E-10	324.451143	0.0999998	9.0574E-05	324.451143
-3.0005	-9.33E-11	324.47566	0.0999999	9.0095E-05	324.47566
-3.20051	-1.741E-10	324.500358	0.0999999	8.9615E-05	324.500358
-3.40049	-2.001E-10	324.524886	0.1	8.9132E-05	324.524886
-3.6005	-1.905E-10	324.55279	0.1000044	8.85707E-05	324.55279
-3.80049	-2.08E-10	324.577305	0.1000053	8.80877E-05	324.577305
-4.00046	-2.255E-10	324.601897	0.1000053	8.76014E-05	324.601897
-4.20048	-2.317E-10	324.626455	0.1000053	8.71151E-05	324.626455
-4.4005	-5.085E-10	324.650963	0.1000045	8.6627E-05	324.650963
-4.60047	-2.524E-10	324.675513	0.1000051	8.61383E-05	324.675513
-4.8005	-2.34E-10	324.699964	0.1000046	8.56468E-05	324.699964
-5.0005	-2.502E-10	324.724521	0.1000044	8.51552E-05	324.724521
-5.2005	-2.74E-10	324.749026	0.1000046	8.46615E-05	324.749026
-5.40052	-2.678E-10	324.773565	0.1000048	8.41675E-05	324.773565
-5.6005	-2.564E-10	324.798081	0.100005	8.36695E-05	324.798081
-5.80049	-2.659E-10	324.822623	0.1000046	8.31718E-05	324.822623
-6.00049	-2.783E-10	324.847135	0.1000044	8.26713E-05	324.847135
-6.2005	-2.059E-10	324.906099	0.1000044	8.21713E-05	324.906099
-6.40049	-2.599E-10	324.930695	0.1000046	8.16668E-05	324.930695
-6.6005	-2.717E-10	324.955226	0.1000058	8.1163E-05	324.955226
-6.80049	-2.552E-10	324.979748	0.1000049	8.06536E-05	324.979748
-7.00051	-2.694E-10	325.004306	0.1000053	8.01447E-05	325.004306
-7.2005	-2.931E-10	325.028846	0.1000057	7.96329E-05	325.028846
-7.40049	-2.936E-10	325.053353	0.1000051	7.91193E-05	325.053353
-7.60052	-2.732E-10	325.077883	0.1000054	7.86036E-05	325.077883
-7.80048	-2.819E-10	325.102484	0.1000056	7.8086E-05	325.102484
-8.0005	-3.034E-10	325.127045	0.1000057	7.75667E-05	325.127045
-8.20048	-3.112E-10	325.151572	0.1000054	7.70445E-05	325.151572
-8.40048	-2.827E-10	325.176084	0.1000052	7.65206E-05	325.176084
-8.60048	-2.965E-10	325.200596	0.1000053	7.59939E-05	325.200596
-8.80049	-3.193E-10	325.225119	0.1000058	7.54677E-05	325.225119
-9.0005	-3.129E-10	325.249634	0.1000063	7.4937E-05	325.249634
-9.2005	-3.125E-10	325.274195	0.1000051	7.44042E-05	325.274195
-9.40048	-3.158E-10	325.298714	0.1000057	7.38712E-05	325.298714
-9.60051	-3.114E-10	325.323286	0.1000062	7.3335E-05	325.323286
-9.80049	-3.262E-10	325.3478	0.1000059	7.28002E-05	325.3478
-10.00048	-2.68E-10	325.404892	0.1000058	7.22686E-05	325.404892
-10.20048	-3.074E-10	325.429421	0.1000064	7.17286E-05	325.429421
-10.4005	-3.161E-10	325.453927	0.1000056	7.11856E-05	325.453927
-10.6005	-3.203E-10	325.478439	0.1000064	7.06412E-05	325.478439
-10.80049	-3.077E-10	325.503013	0.1000058	7.00915E-05	325.503013
-11.00048	-3.299E-10	325.527532	0.100006	6.95428E-05	325.527532
-11.20048	-3.55E-10	325.552052	0.100006	6.89902E-05	325.552052
-11.40049	-3.224E-10	325.576573	0.1000062	6.84348E-05	325.576573
-11.6005	-3.167E-10	325.601193	0.1000066	6.78785E-05	325.601193
-11.80049	-3.526E-10	325.625826	0.1000066	6.7319E-05	325.625826
-12.00048	-3.629E-10	325.650351	0.1000064	6.67566E-05	325.650351
