#scan	iMeasureCycle=1	iMux=0	time=0.038	N=222	LocalTime=22/06/2023 09:26:52
#VGate(V)	IGate(A)	time(s)	VDrain(V)	IDrain(A)	time(s)
-12.0005	-3.0406E-09	0.063756	0.1000069	6.97027E-05	0.063756
-11.80049	-2.9676E-09	0.088656	0.1000063	7.02575E-05	0.088656
-11.60051	-1.1564E-09	0.113181	0.1000068	7.08109E-05	0.113181
-11.40048	-5.014E-10	0.137707	0.1000065	7.136E-05	0.137707
-11.2005	-3.216E-10	0.162214	0.1000051	7.19065E-05	0.162214
-11.00049	-1.947E-10	0.186741	0.1000067	7.24525E-05	0.186741
-10.80047	-1.59E-10	0.211316	0.1000061	7.29954E-05	0.211316
-10.60049	-1.016E-10	0.235785	0.1000065	7.35344E-05	0.235785
-10.40051	-6.91E-11	0.260304	0.1000055	7.40721E-05	0.260304
-10.2005	-4.08E-11	0.284839	0.1000057	7.46062E-05	0.284839
-10.00048	-2.12E-11	0.309348	0.1000056	7.51399E-05	0.309348
-9.80049	2.5E-12	0.333883	0.1000065	7.56703E-05	0.333883
-9.6005	9.8E-12	0.358418	0.1000053	7.61999E-05	0.358418
-9.40049	2.74E-11	0.382983	0.1000055	7.67272E-05	0.382983
-9.2005	4.75E-11	0.407514	0.100006	7.72528E-05	0.407514
-9.00048	5.77E-11	0.432044	0.100006	7.77712E-05	0.432044
-8.8005	4.52E-11	0.456564	0.1000055	7.82877E-05	0.456564
-8.60049	6.28E-11	0.481109	0.1000063	7.88019E-05	0.481109
-8.40049	7.8E-12	0.505623	0.1000056	7.93127E-05	0.505623
-8.20049	6.44E-11	0.530213	0.100006	7.98215E-05	0.530213
-8.0005	7.62E-11	0.554733	0.1000051	8.03303E-05	0.554733
-7.80049	9.55E-11	0.579276	0.1000047	8.08331E-05	0.579276
-7.60049	6.78E-11	0.626863	0.1000056	8.13358E-05	0.626863
-7.40049	1.002E-10	0.651422	0.1000049	8.18368E-05	0.651422
-7.20049	9.05E-11	0.675956	0.1000047	8.23388E-05	0.675956
-7.0005	1.207E-10	0.700489	0.1000045	8.28376E-05	0.700489
-6.80048	1.304E-10	0.725056	0.1000055	8.33352E-05	0.725056
-6.6005	1.386E-10	0.749578	0.1000042	8.38315E-05	0.749578
-6.40049	1.408E-10	0.774092	0.1000043	8.43255E-05	0.774092
-6.2005	1.314E-10	0.798613	0.1000045	8.48186E-05	0.798613
-6.00049	1.795E-10	0.82312	0.1000048	8.53078E-05	0.82312
-5.80049	1.764E-10	0.847688	0.1000052	8.57977E-05	0.847688
-5.6005	1.541E-10	0.872247	0.1000036	8.62853E-05	0.872247
-5.40049	1.584E-10	0.896849	0.1000058	8.67728E-05	0.896849
-5.2005	1.901E-10	0.921399	0.1000053	8.72566E-05	0.921399
-5.00049	1.876E-10	0.945912	0.1000051	8.77393E-05	0.945912
-4.80049	1.863E-10	0.970437	0.1000048	8.82209E-05	0.970437
-4.60048	1.961E-10	0.994945	0.1000049	8.87015E-05	0.994945
-4.4005	2.005E-10	1.019476	0.100005	8.91824E-05	1.019476
-4.2005	2.055E-10	1.043987	0.1000049	8.96601E-05	1.043987
-4.0005	2.141E-10	1.068513	0.1000046	9.01371E-05	1.068513
-3.80051	1.719E-10	1.128425	0.1000045	9.06103E-05	1.128425
-3.60049	1.956E-10	1.152961	0.1000041	9.10838E-05	1.152961
-3.4005	1.963E-10	1.177482	0.1000043	9.15577E-05	1.177482
-3.2005	2.222E-10	1.202076	0.1000043	9.20318E-05	1.202076
-3.00049	2.421E-10	1.226661	0.1000039	9.25039E-05	1.226661
-2.80049	2.173E-10	1.251185	0.1000039	9.29746E-05	1.251185
-2.60049	2.251E-10	1.275714	0.100004	9.34439E-05	1.275714
-2.4005	2.488E-10	1.300221	0.1000046	9.39125E-05	1.300221
-2.2005	2.403E-10	1.324746	0.1000043	9.43803E-05	1.324746
-2.0005	2.443E-10	1.34927	0.1000038	9.48483E-05	1.34927
-1.80051	2.598E-10	1.373841	0.1000041	9.53171E-05	1.373841
-1.6005	2.442E-10	1.398453	0.1000044	9.57877E-05	1.398453
-1.40051	2.683E-10	1.422997	0.1000039	9.62637E-05	1.422997
-1.20051	2.838E-10	1.447515	0.1000039	9.67466E-05	1.447515
-1.0005	4.295E-10	1.472139	0.1000038	9.7239E-05	1.472139
-0.8005	2.828E-10	1.496656	0.1000046	9.77415E-05	1.496656
-0.6005	2.919E-10	1.521188	0.1000039	9.82503E-05	1.521188
-0.40049	3.076E-10	1.545761	0.1000042	9.87691E-05	1.545761
-0.20049	2.952E-10	1.570301	0.100005	9.92913E-05	1.570301
-0.0005	2.418E-10	1.63	0.1000046	9.98132E-05	1.63
0.1995	2.831E-10	1.654518	0.1000043	0.0001003446	1.654518
0.3995	2.784E-10	1.679052	0.1000042	0.0001008793	1.679052
0.59952	2.958E-10	1.703564	0.1000036	0.0001014132	1.703564
0.7995	3.193E-10	1.728134	0.1000043	0.0001019484	1.728134
0.99951	3.098E-10	1.752608	0.1000044	0.0001024865	1.752608
1.19949	2.886E-10	1.777126	0.1000036	0.0001030247	1.777126
1.39952	3.117E-10	1.801646	0.1000046	0.0001035673	1.801646
1.59951	3.491E-10	1.826159	0.1000044	0.0001041098	1.826159
1.7995	3.203E-10	1.850675	0.1000031	0.0001046508	1.850675
1.99949	3.068E-10	1.880305	0.0999999	0.000105276	1.880305
2.1995	3.262E-10	1.904904	0.0999999	0.000105822	1.904904
2.3995	1.794E-10	1.929421	0.0999998	0.000106366	1.929421
2.59951	3.252E-10	1.953932	0.0999999	0.000106915	1.953932
2.7995	3.279E-10	1.978465	0.1	0.000107462	1.978465
2.9995	3.309E-10	2.002966	0.1	0.000108011	2.002966
3.1995	3.593E-10	2.027484	0.0999998	0.000108559	2.027484
3.39949	3.478E-10	2.051995	0.0999999	0.000109107	2.051995
3.5995	3.269E-10	2.076533	0.1000001	0.000109655	2.076533
3.79949	2.969E-10	2.134541	0.1000001	0.000110196	2.134541
3.99949	3.331E-10	2.159065	0.0999999	0.000110741	2.159065
4.19949	3.415E-10	2.183582	0.0999999	0.000111287	2.183582
4.39948	3.643E-10	2.208161	0.0999999	0.00011183	2.208161
4.5995	3.561E-10	2.232755	0.1	0.000112371	2.232755
4.79949	3.467E-10	2.25727	0.1	0.00011291	2.25727
4.99949	3.669E-10	2.281813	0.0999999	0.000113448	2.281813
5.19949	3.915E-10	2.306317	0.0999999	0.000113981	2.306317
5.39949	3.67E-10	2.330848	0.1000001	0.000114509	2.330848
5.5995	3.683E-10	2.35536	0.0999999	0.000115039	2.35536
5.79949	3.873E-10	2.379909	0.1	0.000115565	2.379909
5.99948	3.918E-10	2.404501	0.0999998	0.000116088	2.404501
6.1995	3.9E-10	2.429034	0.0999999	0.00011661	2.429034
6.3995	3.771E-10	2.453534	0.1	0.000117126	2.453534
6.59949	3.907E-10	2.47805	0.0999998	0.00011764	2.47805
6.7995	4.001E-10	2.502562	0.0999999	0.00011815	2.502562
6.99949	3.982E-10	2.527094	0.1000001	0.000118657	2.527094
7.19949	4.068E-10	2.551658	0.1000001	0.000119165	2.551658
7.39949	3.951E-10	2.576197	0.0999999	0.000119667	2.576197
7.5995	3.512E-10	2.633482	0.1	0.000120163	2.633482
7.7995	3.759E-10	2.658008	0.0999999	0.000120661	2.658008
7.99948	3.979E-10	2.682596	0.1	0.000121154	2.682596
8.1995	4.082E-10	2.707113	0.1	0.000121646	2.707113
8.3995	4.127E-10	2.731694	0.1	0.000122131	2.731694
8.59948	3.998E-10	2.75621	0.1	0.00012262	2.75621
8.7995	4.102E-10	2.780723	0.0999998	0.000123106	2.780723
8.9995	4.24E-10	2.805232	0.0999999	0.000123583	2.805232
9.1995	4.299E-10	2.829754	0.1000002	0.000124063	2.829754
9.39948	4.179E-10	2.854261	0.0999999	0.000124545	2.854261
9.59948	6.901E-10	2.878826	0.0999998	0.000125021	2.878826
9.7995	4.587E-10	2.903454	0.0999998	0.000125496	2.903454
9.99949	4.565E-10	2.92796	0.0999999	0.00012597	2.92796
9.9995	3.876E-10	2.951318	0.1000001	0.000125971	2.951318
9.79952	3.038E-10	2.975837	0.0999999	0.000125497	2.975837
9.59948	2.6E-10	3.000348	0.1000001	0.000125028	3.000348
9.3995	2.325E-10	3.024872	0.1	0.000124552	3.024872
9.1995	2.234E-10	3.049377	0.1000001	0.000124073	3.049377
8.9995	1.843E-10	3.073897	0.0999999	0.000123595	3.073897
8.79953	1.997E-10	3.130558	0.0999999	0.000123108	3.130558
8.5995	1.567E-10	3.15508	0.1	0.000122616	3.15508
8.39951	1.325E-10	3.179612	0.0999999	0.000122122	3.179612
8.1995	1.25E-10	3.20418	0.1	0.000121624	3.20418
7.99949	1.221E-10	3.228763	0.0999998	0.000121126	3.228763
7.79951	9.05E-11	3.253283	0.1	0.000120624	3.253283
7.5995	6.8E-11	3.27789	0.1	0.000120116	3.27789
7.39951	8.73E-11	3.302403	0.1	0.00011961	3.302403
7.1995	7.64E-11	3.326918	0.0999999	0.000119098	3.326918
6.99948	-8.71E-11	3.351421	0.0999998	0.000118586	3.351421
6.7995	2.09E-11	3.375981	0.1	0.000118071	3.375981
6.59951	2.93E-11	3.400585	0.1000001	0.000117551	3.400585
6.39949	1.93E-11	3.425135	0.0999999	0.000117031	3.425135
6.19949	7E-12	3.449644	0.1000001	0.000116509	3.449644
5.99951	8.1E-12	3.474181	0.1	0.000115985	3.474181
5.7995	-1.65E-11	3.498704	0.1	0.000115456	3.498704
5.59951	-1.62E-11	3.523226	0.0999999	0.000114924	3.523226
5.3995	2.6E-12	3.547797	0.1000001	0.000114392	3.547797
5.1995	-2.33E-11	3.572318	0.1000002	0.000113854	3.572318
4.9995	2.51E-11	3.620508	0.0999998	0.000113316	3.620508
4.7995	-1.07E-11	3.645091	0.1000003	0.000112776	3.645091
4.59951	-2.78E-11	3.669593	0.1000004	0.000112233	3.669593
4.3995	-5.32E-11	3.694122	0.1000001	0.000111688	3.694122
4.19951	-4.56E-11	3.72036	0.1	0.000111141	3.72036
3.9995	-3.35E-11	3.744882	0.1	0.000110592	3.744882
3.7995	-6.22E-11	3.769396	0.1000002	0.000110041	3.769396
3.5995	-8.56E-11	3.793917	0.1	0.000109489	3.793917
3.3995	-7.96E-11	3.818448	0.1000001	0.000108942	3.818448
3.1995	-7.96E-11	3.842962	0.0999999	0.000108391	3.842962
2.9995	-7.77E-11	3.867493	0.0999998	0.000107839	3.867493
2.7995	-9.12E-11	3.892201	0.1000002	0.00010729	3.892201
2.59951	-1.052E-10	3.916729	0.0999999	0.00010674	3.916729
2.39951	-1.003E-10	3.941251	0.1000002	0.00010619	3.941251
2.19951	-1.142E-10	3.965772	0.1000001	0.000105638	3.965772
1.9995	-1.068E-10	3.990295	0.0999999	0.00010509	3.990295
1.7995	-1.176E-10	4.014826	0.0999999	0.000104544	4.014826
1.5995	-1.418E-10	4.03935	0.0999998	0.000103998	4.03935
1.39951	-1.317E-10	4.063865	0.0999999	0.000103455	4.063865
1.19951	-1.079E-10	4.088381	0.1000001	0.000102914	4.088381
0.9995	-1.121E-10	4.138174	0.0999998	0.000102375	4.138174
0.79949	-1.246E-10	4.162718	0.0999998	0.000101838	4.162718
0.59952	-1.275E-10	4.187329	0.1000001	0.000101301	4.187329
0.3995	-1.455E-10	4.211917	0.0999997	0.000100765	4.211917
0.1995	-1.664E-10	4.236483	0.0999999	0.000100233	4.236483
-0.00049	-1.56E-10	4.261003	0.1000001	9.9699E-05	4.261003
-0.20049	-4.34E-11	4.285516	0.1	9.9169E-05	4.285516
-0.4005	-1.564E-10	4.31006	0.0999996	9.8645E-05	4.31006
-0.60048	-1.67E-10	4.334674	0.1000001	9.813E-05	4.334674
-0.80049	-1.714E-10	4.35919	0.1	9.7626E-05	4.35919
-1.0005	-1.816E-10	4.38373	0.0999999	9.713E-05	4.38373
-1.20012	-1.769E-10	4.408338	0.1000001	9.6643E-05	4.408338
-1.40058	-1.956E-10	4.43287	0.0999999	9.6164E-05	4.43287
-1.60048	-2.248E-10	4.457384	0.0999999	9.5693E-05	4.457384
-1.80045	-2.07E-10	4.481918	0.0999998	9.5225E-05	4.481918
-2.00046	-2.015E-10	4.506448	0.0999998	9.4757E-05	4.506448
-2.20045	-2.185E-10	4.530972	0.1000001	9.4291E-05	4.530972
-2.40047	-2.218E-10	4.555553	0.1	9.3823E-05	4.555553
-2.60047	-2.743E-10	4.580092	0.1	9.3357E-05	4.580092
-2.8005	-1.678E-10	4.640031	0.1000003	9.2891E-05	4.640031
-3.00049	-2.045E-10	4.664563	0.1000001	9.242E-05	4.664563
-3.2005	-2.011E-10	4.689084	0.1	9.1948E-05	4.689084
-3.40049	-2.151E-10	4.713608	0.0999998	9.1475E-05	4.713608
-3.60048	-2.35E-10	4.738195	0.1000001	9.1003E-05	4.738195
-3.8005	-2.391E-10	4.762726	0.0999997	9.0528E-05	4.762726
-4.00048	-2.202E-10	4.787259	0.1	9.0052E-05	4.787259
-4.20049	-2.272E-10	4.811777	0.0999996	8.9574E-05	4.811777
-4.40049	-2.555E-10	4.836374	0.1	8.9096E-05	4.836374
-4.60049	-2.627E-10	4.860897	0.0999999	8.8618E-05	4.860897
-4.80048	-2.257E-10	4.888833	0.1000042	8.80548E-05	4.888833
-5.0005	-2.479E-10	4.913434	0.1000056	8.75735E-05	4.913434
-5.20049	-2.673E-10	4.937956	0.1000059	8.70915E-05	4.937956
-5.40051	-2.65E-10	4.962485	0.1000054	8.66061E-05	4.962485
-5.60048	-2.64E-10	4.98699	0.100005	8.61182E-05	4.98699
-5.8005	-2.558E-10	5.011537	0.1000063	8.56304E-05	5.011537
-6.0005	-2.845E-10	5.036055	0.100005	8.51387E-05	5.036055
-6.20048	-2.927E-10	5.060577	0.1000054	8.4647E-05	5.060577
-6.40049	-2.635E-10	5.085088	0.1000062	8.41544E-05	5.085088
-6.60049	-2.224E-10	5.144349	0.1000048	8.36595E-05	5.144349
-6.80048	-2.534E-10	5.168883	0.1000049	8.31627E-05	5.168883
-7.00049	-2.675E-10	5.193399	0.1000049	8.26634E-05	5.193399
-7.20049	-2.901E-10	5.217966	0.1000057	8.21622E-05	5.217966
-7.4005	-2.88E-10	5.242531	0.1000051	8.16591E-05	5.242531
-7.60049	-2.753E-10	5.267065	0.1000053	8.11546E-05	5.267065
-7.80047	-2.947E-10	5.291583	0.1000043	8.06463E-05	5.291583
-8.00049	-3.079E-10	5.316128	0.1000061	8.01379E-05	5.316128
-8.20048	-3.043E-10	5.340644	0.100006	7.96265E-05	5.340644
-8.40049	-2.937E-10	5.365182	0.1000051	7.91124E-05	5.365182
-8.60048	-3.033E-10	5.389715	0.1000051	7.85985E-05	5.389715
-8.80047	-3.201E-10	5.414303	0.100006	7.80797E-05	5.414303
-9.00049	-3.22E-10	5.438821	0.1000063	7.75606E-05	5.438821
-9.20048	-3.124E-10	5.463342	0.1000049	7.70382E-05	5.463342
-9.40048	-3.107E-10	5.487858	0.1000064	7.65145E-05	5.487858
-9.6005	-3.386E-10	5.512424	0.1000053	7.59901E-05	5.512424
-9.80048	-3.196E-10	5.536968	0.100006	7.54661E-05	5.536968
-10.00049	-3.333E-10	5.561533	0.1000056	7.49369E-05	5.561533
-10.20048	-3.384E-10	5.586077	0.1000056	7.44087E-05	5.586077
-10.40047	-2.805E-10	5.64312	0.1000057	7.38827E-05	5.64312
-10.60049	-3.05E-10	5.667633	0.1000053	7.33472E-05	5.667633
-10.80048	-1.88E-10	5.692149	0.1000065	7.28111E-05	5.692149
-11.00048	-3.121E-10	5.71669	0.1000057	7.22706E-05	5.71669
-11.2005	-3.248E-10	5.741258	0.1000067	7.17293E-05	5.741258
-11.40048	-3.364E-10	5.765776	0.1000068	7.11856E-05	5.765776
-11.6005	-3.25E-10	5.790307	0.100006	7.06371E-05	5.790307
-11.80049	-3.422E-10	5.814828	0.1000066	7.00884E-05	5.814828
-12.00047	-3.63E-10	5.839351	0.1000063	6.95371E-05	5.839351
#scan	iMeasureCycle=2	iMux=0	time=279.612	N=222	LocalTime=22/06/2023 09:31:31
#VGate(V)	IGate(A)	time(s)	VDrain(V)	IDrain(A)	time(s)
-12.00047	-8.06E-11	279.61954	0.1000059	6.95822E-05	279.61954
-11.8005	-7E-12	279.644424	0.1000051	7.01365E-05	279.644424
-11.60049	3.2E-12	279.670239	0.100006	7.06881E-05	279.670239
-11.4005	4.46E-11	279.694778	0.1000051	7.12375E-05	279.694778
-11.20049	3.57E-11	279.719321	0.1000063	7.17856E-05	279.719321
-11.00048	5.61E-11	279.743848	0.1000046	7.2328E-05	279.743848
-10.80049	7.87E-11	279.768454	0.1000051	7.28714E-05	279.768454
-10.60049	7.73E-11	279.792991	0.1000053	7.34111E-05	279.792991
-10.4005	8.64E-11	279.817501	0.1000057	7.39493E-05	279.817501
-10.2005	1.557E-10	279.842021	0.1000055	7.4484E-05	279.842021
-10.00049	1.468E-10	279.866537	0.1000048	7.50189E-05	279.866537
-9.80048	1.237E-10	279.891065	0.1000057	7.55509E-05	279.891065
-9.6005	1.315E-10	279.915634	0.1000061	7.60791E-05	279.915634
-9.40049	1.225E-10	279.940241	0.1000058	7.66073E-05	279.940241
-9.20048	1.263E-10	279.964769	0.1000059	7.71328E-05	279.964769
-9.00049	1.464E-10	279.989288	0.1000063	7.76532E-05	279.989288
-8.80048	1.545E-10	280.013811	0.1000058	7.81706E-05	280.013811
-8.60049	1.481E-10	280.038334	0.1000056	7.86844E-05	280.038334
-8.40049	2.35E-11	280.062857	0.1000058	7.91967E-05	280.062857
-8.2005	1.316E-10	280.087402	0.1000046	7.97051E-05	280.087402
-8.0005	1.601E-10	280.111899	0.1000046	8.02143E-05	280.111899
-7.80047	1.444E-10	280.136411	0.1000054	8.07202E-05	280.136411
-7.6005	1.032E-10	280.183254	0.1000055	8.12233E-05	280.183254
-7.4005	1.457E-10	280.207776	0.1000051	8.17268E-05	280.207776
-7.20049	1.903E-10	280.232371	0.1000056	8.22298E-05	280.232371
-7.0005	1.713E-10	280.256969	0.100005	8.27297E-05	280.256969
-6.80048	1.558E-10	280.281546	0.100005	8.32278E-05	280.281546
-6.6005	1.845E-10	280.306064	0.1000054	8.37254E-05	280.306064
-6.4005	1.924E-10	280.330598	0.1000056	8.42188E-05	280.330598
-6.20049	1.923E-10	280.355108	0.1000052	8.4713E-05	280.355108
-6.00049	1.84E-10	280.379662	0.1000049	8.52047E-05	280.379662
-5.80049	1.905E-10	280.404187	0.1000051	8.56942E-05	280.404187
-5.6005	2.051E-10	280.428718	0.1000043	8.61832E-05	280.428718
-5.40049	2.159E-10	280.453229	0.1000046	8.66699E-05	280.453229
-5.20049	2.044E-10	280.47778	0.1000055	8.71554E-05	280.47778
-5.0005	2.089E-10	280.502291	0.1000049	8.76371E-05	280.502291
-4.80048	2.11E-10	280.526818	0.100005	8.81206E-05	280.526818
-4.6005	2.247E-10	280.55133	0.1000049	8.86013E-05	280.55133
-4.40051	2.307E-10	280.57592	0.1000053	8.90802E-05	280.57592
-4.2005	2.184E-10	280.600441	0.1000044	8.95584E-05	280.600441
-4.0005	2.155E-10	280.624981	0.1000043	9.00352E-05	280.624981
-3.8005	1.832E-10	280.684734	0.1000044	9.05096E-05	280.684734
-3.60049	2.168E-10	280.709281	0.100004	9.09845E-05	280.709281
-3.4005	2.233E-10	280.733831	0.1000043	9.14582E-05	280.733831
-3.20049	2.403E-10	280.758443	0.1000045	9.19315E-05	280.758443
-3.0005	2.347E-10	280.783019	0.1000043	9.24033E-05	280.783019
-2.80049	2.343E-10	280.807559	0.1000046	9.28743E-05	280.807559
-2.6005	2.543E-10	280.832095	0.1000044	9.33435E-05	280.832095
-2.4005	2.638E-10	280.856608	0.1000049	9.3814E-05	280.856608
-2.2005	2.505E-10	280.881152	0.1000046	9.42819E-05	280.881152
-2.0005	2.508E-10	280.90572	0.1000045	9.475E-05	280.90572
-1.80051	2.636E-10	280.93026	0.1000041	9.52191E-05	280.93026
-1.6005	2.825E-10	280.954762	0.1000038	9.56894E-05	280.954762
-1.4005	2.63E-10	280.97929	0.1000046	9.61664E-05	280.97929
-1.20049	2.544E-10	281.003812	0.1000039	9.66475E-05	281.003812
-1.0005	2.923E-10	281.028351	0.1000037	9.71403E-05	281.028351
-0.80051	2.898E-10	281.05286	0.100004	9.76427E-05	281.05286
-0.60049	2.66E-10	281.077402	0.1000046	9.81516E-05	281.077402
-0.40049	2.914E-10	281.10192	0.1000032	9.86704E-05	281.10192
-0.20049	2.866E-10	281.126454	0.1000036	9.91938E-05	281.126454
-0.0005	2.25E-10	281.186447	0.1000041	9.9717E-05	281.186447
0.19951	2.804E-10	281.210961	0.100004	0.00010025	281.210961
0.39952	2.911E-10	281.23557	0.1000043	0.000100783	281.23557
0.5995	4.257E-10	281.260165	0.1000042	0.0001013189	281.260165
0.79951	3.088E-10	281.284741	0.1000052	0.0001018559	281.284741
0.9995	3.177E-10	281.309258	0.1000048	0.0001023951	281.309258
1.19948	3.155E-10	281.333786	0.1000038	0.0001029335	281.333786
1.39949	3.149E-10	281.358298	0.100004	0.0001034755	281.358298
1.5995	3.064E-10	281.382837	0.1000039	0.0001040182	281.382837
1.79949	3.203E-10	281.407353	0.1000044	0.0001045602	281.407353
1.99948	3.016E-10	281.43699	0.1	0.000105182	281.43699
2.1995	3.143E-10	281.461499	0.0999999	0.000105729	281.461499
2.39949	6.75E-11	281.486012	0.1	0.000106276	281.486012
2.5995	3.171E-10	281.510526	0.1000001	0.000106823	281.510526
2.79948	3.274E-10	281.535032	0.1	0.000107371	281.535032
2.99949	3.285E-10	281.559548	0.0999999	0.000107922	281.559548
3.19949	3.076E-10	281.584196	0.1000001	0.000108471	281.584196
3.3995	3.466E-10	281.608717	0.1000001	0.000109018	281.608717
3.59949	3.498E-10	281.633246	0.0999999	0.000109566	281.633246
3.79949	2.94E-10	281.690804	0.0999999	0.000110108	281.690804
3.9995	3.296E-10	281.715346	0.0999999	0.000110658	281.715346
4.19949	3.234E-10	281.739884	0.1	0.000111204	281.739884
4.39948	3.26E-10	281.764497	0.1000001	0.000111747	281.764497
4.59949	3.549E-10	281.789057	0.0999998	0.000112288	281.789057
4.79948	3.699E-10	281.813574	0.0999997	0.000112828	281.813574
4.99949	3.412E-10	281.838088	0.1000001	0.000113365	281.838088
5.1995	3.441E-10	281.862606	0.0999999	0.0001139	281.862606
5.39949	3.751E-10	281.88721	0.1000002	0.000114431	281.88721
5.59949	3.58E-10	281.91179	0.1	0.000114962	281.91179
5.7995	3.546E-10	281.936406	0.0999997	0.000115488	281.936406
5.99948	3.786E-10	281.960915	0.0999998	0.000116012	281.960915
6.1995	3.623E-10	281.985449	0.1	0.000116534	281.985449
6.3995	3.725E-10	282.009974	0.1	0.00011705	282.009974
6.59949	3.837E-10	282.03451	0.1000001	0.000117566	282.03451
6.7995	3.688E-10	282.059028	0.1000001	0.000118079	282.059028
6.99949	3.738E-10	282.083573	0.1000001	0.000118588	282.083573
7.19949	3.794E-10	282.108101	0.1	0.000119095	282.108101
7.39949	4.041E-10	282.132634	0.1000001	0.000119598	282.132634
7.59949	3.233E-10	282.189612	0.1	0.000120094	282.189612
7.79951	4.029E-10	282.21413	0.1	0.000120593	282.21413
7.9995	3.777E-10	282.238739	0.0999997	0.000121088	282.238739
8.1995	3.581E-10	282.263339	0.0999999	0.000121581	282.263339
8.3995	3.903E-10	282.288002	0.1000001	0.00012207	282.288002
8.5995	4.02E-10	282.312525	0.1	0.000122558	282.312525
8.79949	3.871E-10	282.337032	0.0999999	0.000123042	282.337032
8.99949	3.92E-10	282.361551	0.1	0.000123523	282.361551
9.19949	4.029E-10	282.386063	0.1000001	0.000124003	282.386063
9.39949	4.128E-10	282.410578	0.0999999	0.000124482	282.410578
9.59948	4.022E-10	282.435149	0.0999999	0.000124962	282.435149
9.7995	4.116E-10	282.45967	0.1	0.000125438	282.45967
9.99948	4.125E-10	282.484168	0.1000001	0.000125908	282.484168
9.9995	3.468E-10	282.507521	0.0999998	0.00012591	282.507521
9.7995	2.875E-10	282.532048	0.1	0.000125439	282.532048
9.59949	2.496E-10	282.556548	0.0999998	0.000124966	282.556548
9.39949	1.976E-10	282.581118	0.1	0.00012449	282.581118
9.1995	1.656E-10	282.605639	0.1	0.00012401	282.605639
8.9995	1.756E-10	282.630152	0.1	0.000123533	282.630152
8.7995	2.08E-10	282.69133	0.0999998	0.000123044	282.69133
8.5995	1.485E-10	282.715866	0.1	0.000122553	282.715866
8.39951	1.278E-10	282.740414	0.1	0.000122056	282.740414
8.1995	1.11E-10	282.765021	0.0999998	0.00012156	282.765021
7.99949	9.56E-11	282.789598	0.1000002	0.000121058	282.789598
7.79951	9.11E-11	282.814141	0.0999999	0.000120554	282.814141
7.5995	7.75E-11	282.838673	0.0999998	0.000120049	282.838673
7.3995	5.33E-11	282.863204	0.0999999	0.00011954	282.863204
7.19949	-1.097E-10	282.887707	0.0999998	0.000119032	282.887707
6.99949	3.69E-11	282.912398	0.1000001	0.00011852	282.912398
6.7995	2.39E-11	282.936913	0.1	0.000118007	282.936913
6.5995	6.7E-12	282.961437	0.1	0.000117488	282.961437
6.39951	-8.4E-12	282.985947	0.0999998	0.000116967	282.985947
6.19951	1.65E-11	283.010553	0.1	0.000116444	283.010553
5.9995	6.8E-12	283.035059	0.1000001	0.000115918	283.035059
5.7995	-2.62E-11	283.059581	0.0999998	0.000115389	283.059581
5.59951	-2.46E-11	283.084097	0.1000001	0.000114858	283.084097
5.3995	-2.11E-11	283.108617	0.0999998	0.000114325	283.108617
5.19949	-2.76E-11	283.133134	0.1	0.000113788	283.133134
4.9995	5.6E-12	283.188498	0.0999998	0.000113249	283.188498
4.79949	-2.51E-11	283.212995	0.0999999	0.000112707	283.212995
4.59951	-2.76E-11	283.237561	0.1000001	0.000112164	283.237561
4.39949	-4.99E-11	283.262086	0.0999999	0.000111618	283.262086
4.1995	-5.7E-11	283.286674	0.1	0.00011107	283.286674
3.9995	-6.29E-11	283.311191	0.0999999	0.000110523	283.311191
3.7995	-5.19E-11	283.335732	0.0999999	0.000109973	283.335732
3.59951	-8.01E-11	283.360238	0.1000001	0.000109422	283.360238
3.3995	-1.067E-10	283.384768	0.0999999	0.00010887	283.384768
3.1995	-6.88E-11	283.409289	0.1	0.000108319	283.409289
2.99951	-7.96E-11	283.433819	0.0999999	0.000107767	283.433819
2.7995	-1.015E-10	283.458341	0.1000002	0.000107215	283.458341
2.59951	-1.039E-10	283.482845	0.0999999	0.000106665	283.482845
2.3995	-1.013E-10	283.507369	0.1000003	0.000106114	283.507369
2.1995	-1.123E-10	283.531931	0.1000002	0.000105566	283.531931
1.99949	-1.197E-10	283.556444	0.1000001	0.000105017	283.556444
1.7995	-1.106E-10	283.581045	0.0999999	0.000104471	283.581045
1.59951	-1.265E-10	283.605648	0.0999999	0.000103925	283.605648
1.39951	-1.376E-10	283.63017	0.0999999	0.000103381	283.63017
1.19951	-7.48E-11	283.678333	0.0999998	0.000102842	283.678333
0.9995	-1.34E-10	283.702904	0.1000001	0.000102301	283.702904
0.79949	-1.385E-10	283.727726	0.1000001	0.000101762	283.727726
0.59951	-1.195E-10	283.752255	0.1	0.000101225	283.752255
0.39951	-1.276E-10	283.778519	0.1000001	0.000100688	283.778519
0.1995	-1.594E-10	283.803045	0.1	0.000100153	283.803045
-0.00051	-1.559E-10	283.827567	0.1000001	9.962E-05	283.827567
-0.20049	-1.511E-10	283.852092	0.0999998	9.9093E-05	283.852092
-0.40048	-1.548E-10	283.876593	0.1	9.857E-05	283.876593
-0.60048	-1.826E-10	283.90111	0.0999998	9.8055E-05	283.90111
-0.8005	-1.789E-10	283.925673	0.0999999	9.7549E-05	283.925673
-1.0005	-1.663E-10	283.95021	0.1	9.7054E-05	283.95021
-1.20049	-1.795E-10	283.974729	0.0999999	9.6568E-05	283.974729
-1.40049	-2.004E-10	283.999265	0.1	9.6091E-05	283.999265
-1.60048	-1.875E-10	284.023896	0.1	9.5621E-05	284.023896
-1.8005	-2.019E-10	284.048444	0.0999998	9.5151E-05	284.048444
-2.00051	-1.358E-10	284.072974	0.1000001	9.4683E-05	284.072974
-2.20049	-1.601E-10	284.0975	0.1000001	9.4217E-05	284.0975
-2.40049	-2.014E-10	284.122032	0.0999999	9.3749E-05	284.122032
-2.60048	-1.979E-10	284.146586	0.1000001	9.3278E-05	284.146586
-2.8005	-1.479E-10	284.196122	0.0999998	9.2812E-05	284.196122
-3.00049	-1.938E-10	284.220687	0.0999999	9.2339E-05	284.220687
-3.2005	-2.162E-10	284.245486	0.1000003	9.187E-05	284.245486
-3.40049	-1.99E-10	284.270097	0.1	9.1398E-05	284.270097
-3.60048	-3.113E-10	284.294696	0.1	9.0926E-05	284.294696
-3.80049	-2.455E-10	284.319212	0.1000001	9.045E-05	284.319212
-4.00048	-2.507E-10	284.343754	0.1000001	8.9973E-05	284.343754
-4.20049	-2.292E-10	284.368257	0.0999998	8.9498E-05	284.368257
-4.4005	-2.356E-10	284.392795	0.0999998	8.9018E-05	284.392795
-4.60049	-2.391E-10	284.417312	0.0999999	8.8539E-05	284.417312
-4.80048	-2.45E-10	284.445164	0.1000044	8.79745E-05	284.445164
-5.0005	-2.414E-10	284.469681	0.1000043	8.74925E-05	284.469681
-5.20049	-2.297E-10	284.494194	0.1000051	8.70105E-05	284.494194
-5.4005	-2.628E-10	284.518709	0.1000045	8.65249E-05	284.518709
-5.60048	-2.698E-10	284.543238	0.1000048	8.60373E-05	284.543238
-5.80049	-2.508E-10	284.567756	0.100004	8.55483E-05	284.567756
-6.00048	-2.637E-10	284.592333	0.1000053	8.50573E-05	284.592333
-6.20048	-2.587E-10	284.61694	0.1000049	8.45658E-05	284.61694
-6.40048	-2.733E-10	284.641451	0.1000046	8.40704E-05	284.641451
-6.60048	-2.149E-10	284.70059	0.1000047	8.35774E-05	284.70059
-6.80047	-2.677E-10	284.725138	0.1000054	8.30801E-05	284.725138
-7.00049	-2.555E-10	284.749676	0.1000048	8.25799E-05	284.749676
-7.20047	-2.545E-10	284.774303	0.1000048	8.20788E-05	284.774303
-7.40049	-2.685E-10	284.798867	0.1000056	8.15761E-05	284.798867
-7.60049	-2.909E-10	284.823404	0.1000047	8.10684E-05	284.823404
-7.80047	-2.737E-10	284.847923	0.1000049	8.05618E-05	284.847923
-8.00049	-2.747E-10	284.872446	0.1000048	8.00524E-05	284.872446
-8.20049	-2.943E-10	284.896952	0.1000044	7.95403E-05	284.896952
-8.40049	-2.957E-10	284.921543	0.1000055	7.90273E-05	284.921543
-8.60048	-2.844E-10	284.946053	0.1000055	7.85131E-05	284.946053
-8.80047	-2.994E-10	284.970596	0.1000047	7.79938E-05	284.970596
-9.00048	-2.959E-10	284.995105	0.1000052	7.74726E-05	284.995105
-9.20048	-2.957E-10	285.019644	0.1000057	7.69523E-05	285.019644
-9.40048	-3.209E-10	285.044165	0.1000052	7.64271E-05	285.044165
-9.60049	-3.108E-10	285.068681	0.1000054	7.59016E-05	285.068681
-9.80048	-3.063E-10	285.093189	0.1000052	7.53776E-05	285.093189
-10.00048	-3.202E-10	285.11771	0.1000049	7.48496E-05	285.11771
-10.20048	-3.179E-10	285.142229	0.1000058	7.43217E-05	285.142229
-10.40047	-2.514E-10	285.199541	0.1000053	7.37955E-05	285.199541
-10.60049	-3.107E-10	285.22413	0.100006	7.32596E-05	285.22413
-10.80048	-3.25E-10	285.248638	0.1000054	7.27222E-05	285.248638
-11.00048	-2.943E-10	285.273239	0.1000064	7.21826E-05	285.273239
-11.20047	-3.213E-10	285.297818	0.1000065	7.16404E-05	285.297818
-11.40049	-3.414E-10	285.322288	0.1000056	7.10948E-05	285.322288
-11.60049	-3.217E-10	285.346819	0.100006	7.05481E-05	285.346819
-11.80048	-3.272E-10	285.371331	0.1000049	6.99977E-05	285.371331
-12.00048	-3.343E-10	285.395865	0.1000061	6.94464E-05	285.395865
#scan	iMeasureCycle=3	iMux=0	time=319.654	N=222	LocalTime=22/06/2023 09:32:11
#VGate(V)	IGate(A)	time(s)	VDrain(V)	IDrain(A)	time(s)
-12.00049	-6.35E-11	319.661777	0.1000072	6.95531E-05	319.661777
-11.8005	-1.62E-11	319.68666	0.1000071	7.01067E-05	319.68666
-11.6005	-5.5E-12	319.712277	0.100006	7.06586E-05	319.712277
-11.40049	2.67E-11	319.736824	0.1000063	7.12078E-05	319.736824
-11.2005	4.07E-11	319.761359	0.1000067	7.1756E-05	319.761359
-11.00049	-1.056E-10	319.786144	0.1000064	7.22997E-05	319.786144
-10.80049	4.33E-11	319.810674	0.1000057	7.28424E-05	319.810674
-10.60049	6.64E-11	319.835276	0.1000056	7.33828E-05	319.835276
-10.4005	7.38E-11	319.859817	0.1000048	7.39186E-05	319.859817
-10.2005	7.41E-11	319.884334	0.1000055	7.44555E-05	319.884334
-10.00048	9.87E-11	319.908878	0.1000061	7.49895E-05	319.908878
-9.80048	1.02E-10	319.933492	0.1000044	7.55205E-05	319.933492
-9.6005	9.7E-11	319.95801	0.1000049	7.60493E-05	319.95801
-9.40049	1.063E-10	319.982538	0.1000055	7.65781E-05	319.982538
-9.2005	1.285E-10	320.007117	0.1000056	7.71037E-05	320.007117
-9.00048	1.221E-10	320.031628	0.1000054	7.76228E-05	320.031628
-8.80049	1.231E-10	320.056192	0.100005	7.81406E-05	320.056192
-8.6005	1.405E-10	320.080732	0.1000061	7.86558E-05	320.080732
-8.4005	1.556E-10	320.105239	0.1000047	7.91678E-05	320.105239
-8.20049	1.432E-10	320.129762	0.1000048	7.96785E-05	320.129762
-8.0005	1.374E-10	320.154365	0.1000052	8.0187E-05	320.154365
-7.80049	1.721E-10	320.178903	0.1000062	8.06929E-05	320.178903
-7.6005	1.279E-10	320.22451	0.1000049	8.11954E-05	320.22451
-7.40049	1.532E-10	320.249047	0.1000052	8.17E-05	320.249047
-7.20049	1.506E-10	320.27365	0.1000058	8.22024E-05	320.27365
-7.00049	1.653E-10	320.298207	0.1000047	8.27015E-05	320.298207
-6.80049	1.797E-10	320.322991	0.1000051	8.32016E-05	320.322991
-6.60051	1.772E-10	320.347544	0.1000045	8.36975E-05	320.347544
-6.4005	1.806E-10	320.372065	0.1000046	8.41919E-05	320.372065
-6.20051	2.023E-10	320.396653	0.100005	8.46856E-05	320.396653
-6.0005	1.926E-10	320.421168	0.1000044	8.51764E-05	320.421168
-5.8005	1.918E-10	320.445686	0.1000046	8.56674E-05	320.445686
-5.60049	1.947E-10	320.470219	0.1000051	8.61562E-05	320.470219
-5.4005	2.022E-10	320.494739	0.1000048	8.66433E-05	320.494739
-5.20049	2.077E-10	320.519277	0.1000039	8.71266E-05	320.519277
-5.00049	2.038E-10	320.543797	0.1000048	8.76117E-05	320.543797
-4.80048	2.26E-10	320.568325	0.1000054	8.80943E-05	320.568325
-4.6005	2.15E-10	320.592858	0.1000047	8.85747E-05	320.592858
-4.40051	2.177E-10	320.617382	0.1000041	8.90535E-05	320.617382
-4.2005	2.35E-10	320.641894	0.1000048	8.95323E-05	320.641894
-4.00051	2.401E-10	320.666477	0.1000043	9.00088E-05	320.666477
-3.80051	2.657E-10	320.726152	0.1000042	9.04817E-05	320.726152
-3.60048	2.383E-10	320.750697	0.1000051	9.09578E-05	320.750697
-3.4005	2.389E-10	320.775308	0.1000038	9.14319E-05	320.775308
-3.20049	2.407E-10	320.799873	0.1000049	9.19045E-05	320.799873
-3.0005	2.386E-10	320.824605	0.1000046	9.23763E-05	320.824605
-2.80051	2.567E-10	320.849131	0.1000047	9.28463E-05	320.849131
-2.60048	2.492E-10	320.873679	0.1000045	9.33161E-05	320.873679
-2.40051	2.49E-10	320.898197	0.1000051	9.37867E-05	320.898197
-2.2005	2.606E-10	320.922724	0.1000041	9.42535E-05	320.922724
-2.0005	2.653E-10	320.947237	0.1000047	9.47214E-05	320.947237
-1.80051	2.641E-10	320.971777	0.1000051	9.51904E-05	320.971777
-1.60049	2.58E-10	320.996347	0.1000053	9.56627E-05	320.996347
-1.4005	2.733E-10	321.020873	0.1000045	9.61374E-05	321.020873
-1.2005	2.941E-10	321.045381	0.1000043	9.66196E-05	321.045381
-1.0005	2.754E-10	321.069921	0.1000047	9.71118E-05	321.069921
-0.80051	2.746E-10	321.094443	0.1000047	9.76113E-05	321.094443
-0.6005	2.921E-10	321.118967	0.1000039	9.81226E-05	321.118967
-0.4005	2.99E-10	321.143475	0.1000043	9.86411E-05	321.143475
-0.20048	2.906E-10	321.168013	0.1000049	9.9165E-05	321.168013
-0.00051	2.241E-10	321.227842	0.1000035	9.96873E-05	321.227842
0.1995	2.685E-10	321.252373	0.1000043	0.0001002207	321.252373
0.39951	2.664E-10	321.276902	0.1000051	0.0001007561	321.276902
0.59951	3.054E-10	321.301453	0.1000039	0.000101291	321.301453
0.79949	2.963E-10	321.326058	0.1000041	0.0001018286	321.326058
0.9995	2.826E-10	321.350589	0.1000038	0.0001023662	321.350589
1.19949	3.016E-10	321.375133	0.1000041	0.0001029064	321.375133
1.3995	3.171E-10	321.399642	0.1000032	0.0001034478	321.399642
1.5995	3.063E-10	321.424154	0.1000039	0.0001039893	321.424154
1.79949	3.071E-10	321.448671	0.1000029	0.0001045335	321.448671
1.9995	2.803E-10	321.47824	0.0999997	0.000105157	321.47824
2.19951	3.149E-10	321.502773	0.0999999	0.000105704	321.502773
2.39951	3.299E-10	321.527302	0.1	0.000106251	321.527302
2.59951	3.172E-10	321.551815	0.0999999	0.000106798	321.551815
2.79948	3.253E-10	321.576373	0.0999997	0.000107348	321.576373
2.99949	3.339E-10	321.600885	0.1	0.000107896	321.600885
3.19949	3.38E-10	321.625414	0.1	0.000108444	321.625414
3.39949	3.354E-10	321.649919	0.1	0.000108994	321.649919
3.59951	3.293E-10	321.674499	0.1000001	0.000109541	321.674499
3.79948	2.805E-10	321.732486	0.1000003	0.000110084	321.732486
3.99949	3.079E-10	321.757009	0.1000001	0.000110631	321.757009
4.19949	3.453E-10	321.78154	0.0999998	0.000111178	321.78154
4.39948	3.364E-10	321.806073	0.1	0.000111724	321.806073
4.5995	3.391E-10	321.830696	0.1	0.000112267	321.830696
4.79949	3.342E-10	321.855208	0.1	0.000112806	321.855208
4.99949	3.55E-10	321.879737	0.1	0.000113344	321.879737
5.19949	3.659E-10	321.904264	0.1	0.000113879	321.904264
5.39949	3.483E-10	321.928788	0.1000001	0.000114413	321.928788
5.5995	3.657E-10	321.953386	0.1	0.000114943	321.953386
5.7995	3.677E-10	321.977922	0.1	0.000115471	321.977922
5.99948	3.616E-10	322.002495	0.0999999	0.000115995	322.002495
6.19949	3.651E-10	322.02702	0.0999999	0.000116514	322.02702
6.39949	3.833E-10	322.051546	0.1000001	0.000117033	322.051546
6.59949	3.592E-10	322.076166	0.1	0.000117548	322.076166
6.7995	3.791E-10	322.100667	0.1	0.000118063	322.100667
6.99948	3.968E-10	322.12519	0.0999999	0.000118571	322.12519
7.1995	4.957E-10	322.149713	0.0999999	0.000119078	322.149713
7.3995	3.927E-10	322.174251	0.1	0.000119582	322.174251
7.5995	3.435E-10	322.231171	0.0999998	0.00012008	322.231171
7.7995	3.691E-10	322.255683	0.0999998	0.000120577	322.255683
7.99948	3.76E-10	322.280218	0.1000002	0.000121074	322.280218
8.19949	4.065E-10	322.304745	0.0999999	0.000121569	322.304745
8.3995	3.818E-10	322.329503	0.0999997	0.000122057	322.329503
8.5995	3.824E-10	322.354037	0.0999999	0.000122544	322.354037
8.79951	4.068E-10	322.378547	0.1000001	0.00012303	322.378547
8.9995	4.076E-10	322.403063	0.1000002	0.000123512	322.403063
9.19951	4.059E-10	322.427564	0.0999998	0.000123989	322.427564
9.39949	4.083E-10	322.452066	0.0999998	0.000124473	322.452066
9.59948	4.055E-10	322.476645	0.0999998	0.000124952	322.476645
9.7995	4.197E-10	322.50116	0.1000002	0.000125425	322.50116
9.9995	4.156E-10	322.52568	0.1000002	0.0001259	322.52568
9.9995	3.627E-10	322.549012	0.1000001	0.0001259	322.549012
9.79951	2.75E-10	322.573553	0.0999999	0.000125429	322.573553
9.5995	1.348E-10	322.598083	0.0999999	0.000124958	322.598083
9.3995	1.877E-10	322.622617	0.1000001	0.00012448	322.622617
9.1995	1.789E-10	322.647118	0.0999999	0.000124002	322.647118
8.9995	1.443E-10	322.671704	0.1	0.000123522	322.671704
8.7995	1.747E-10	322.728502	0.0999998	0.000123033	322.728502
8.59951	1.192E-10	322.75302	0.1000001	0.000122542	322.75302
8.39949	1.24E-10	322.77753	0.1	0.000122049	322.77753
8.1995	1.029E-10	322.802059	0.1	0.000121548	322.802059
7.9995	8.81E-11	322.826644	0.0999998	0.000121048	322.826644
7.7995	7.38E-11	322.851241	0.0999999	0.000120545	322.851241
7.59949	6.61E-11	322.875781	0.1	0.000120041	322.875781
7.39951	6.44E-11	322.900309	0.0999999	0.000119533	322.900309
7.1995	4.52E-11	322.924829	0.0999998	0.000119022	322.924829
6.99949	3.87E-11	322.94933	0.0999999	0.00011851	322.94933
6.7995	3.54E-11	322.973857	0.1	0.000117994	322.973857
6.5995	1.81E-11	322.998531	0.1	0.000117476	322.998531
6.3995	4.1E-12	323.023071	0.0999999	0.000116957	323.023071
6.1995	1.67E-11	323.047596	0.1	0.000116433	323.047596
5.9995	-1E-11	323.072108	0.1	0.000115908	323.072108
5.79951	-1.39E-11	323.09664	0.1000001	0.000115379	323.09664
5.5995	-1.08E-11	323.121158	0.1	0.000114849	323.121158
5.3995	-2.58E-11	323.145675	0.1000002	0.000114315	323.145675
5.1995	-3.12E-11	323.170192	0.1000001	0.000113777	323.170192
4.99951	1.25E-11	323.218389	0.1	0.000113237	323.218389
4.7995	-1.92E-11	323.242977	0.0999998	0.000112694	323.242977
4.59951	-4.38E-11	323.267586	0.1000001	0.000112151	323.267586
4.3995	-2.53E-11	323.292376	0.0999999	0.000111608	323.292376
4.19951	-2.74E-11	323.318567	0.0999999	0.00011106	323.318567
3.9995	-6.95E-11	323.34316	0.1	0.000110512	323.34316
3.7995	-7.08E-11	323.367679	0.0999999	0.000109961	323.367679
3.5995	-7.18E-11	323.392206	0.1	0.000109411	323.392206
3.3995	-8.37E-11	323.416726	0.0999998	0.000108859	323.416726
3.19951	-8.27E-11	323.441252	0.0999999	0.000108307	323.441252
2.99949	-9.07E-11	323.465769	0.0999998	0.000107757	323.465769
2.7995	-8.78E-11	323.490311	0.0999999	0.000107206	323.490311
2.5995	-1.044E-10	323.514816	0.1000001	0.000106655	323.514816
2.3995	-1.136E-10	323.539344	0.1	0.000106106	323.539344
2.1995	1.609E-10	323.563855	0.0999998	0.000105555	323.563855
1.9995	-1.013E-10	323.588467	0.1	0.000105009	323.588467
1.79951	-1.228E-10	323.612978	0.1	0.000104461	323.612978
1.59952	-1.158E-10	323.637508	0.1000001	0.000103915	323.637508
1.3995	-1.156E-10	323.66203	0.0999999	0.000103371	323.66203
1.19952	-1.342E-10	323.686614	0.1	0.000102829	323.686614
0.99951	-8.98E-11	323.736116	0.1	0.000102291	323.736116
0.7995	-1.154E-10	323.760658	0.0999999	0.000101752	323.760658
0.59953	-1.295E-10	323.785185	0.1	0.000101213	323.785185
0.39952	-1.394E-10	323.809737	0.1	0.000100678	323.809737
0.1995	-1.425E-10	323.834258	0.0999999	0.000100142	323.834258
-0.00049	-1.489E-10	323.858803	0.1000001	9.961E-05	323.858803
-0.20049	-1.628E-10	323.883304	0.0999999	9.9083E-05	323.883304
-0.40049	-1.504E-10	323.907852	0.1000001	9.856E-05	323.907852
-0.60048	-1.707E-10	323.932365	0.1000002	9.8045E-05	323.932365
-0.80051	-1.732E-10	323.956996	0.1	9.754E-05	323.956996
-1.00049	-1.788E-10	323.981521	0.0999998	9.7044E-05	323.981521
-1.20048	-1.811E-10	324.006108	0.1	9.6558E-05	324.006108
-1.4005	-2.728E-10	324.030605	0.1	9.6081E-05	324.030605
-1.60049	-2.149E-10	324.055141	0.1000001	9.5609E-05	324.055141
-1.80049	-1.97E-10	324.079658	0.1	9.5141E-05	324.079658
-2.0005	-1.963E-10	324.104188	0.1	9.4675E-05	324.104188
-2.20049	-2.128E-10	324.128709	0.1	9.4208E-05	324.128709
-2.40049	-2.154E-10	324.153236	0.1	9.374E-05	324.153236
-2.60049	-2.1E-10	324.177745	0.1000001	9.3273E-05	324.177745
-2.80048	-1.56E-10	324.23796	0.1	9.2805E-05	324.23796
-3.00049	-1.965E-10	324.262486	0.1000001	9.2336E-05	324.262486
-3.2005	-1.93E-10	324.287043	0.0999997	9.1865E-05	324.287043
-3.4005	-2.11E-10	324.311563	0.0999999	9.1393E-05	324.311563
-3.60049	-2.326E-10	324.336096	0.0999999	9.092E-05	324.336096
-3.80048	-2.037E-10	324.360626	0.1000002	9.0446E-05	324.360626
-4.00049	-2.187E-10	324.385143	0.0999999	8.9969E-05	324.385143
-4.20049	-2.439E-10	324.409678	0.1000002	8.9491E-05	324.409678
-4.4005	-2.357E-10	324.434197	0.0999998	8.9014E-05	324.434197
-4.60049	-2.263E-10	324.458711	0.0999998	8.8536E-05	324.458711
-4.80048	-2.02E-10	324.486555	0.1000048	8.79735E-05	324.486555
-5.00049	-2.423E-10	324.511071	0.1000045	8.749E-05	324.511071
-5.20048	-2.596E-10	324.535606	0.100004	8.70075E-05	324.535606
-5.40049	-2.33E-10	324.560117	0.1000046	8.65223E-05	324.560117
-5.60049	-2.467E-10	324.58465	0.1000047	8.60355E-05	324.58465
-5.80049	-2.666E-10	324.609162	0.1000046	8.55467E-05	324.609162
-6.00048	-2.704E-10	324.633693	0.1000043	8.50561E-05	324.633693
-6.20049	-2.53E-10	324.658209	0.1000041	8.45645E-05	324.658209
-6.40048	-2.689E-10	324.682783	0.1000046	8.4069E-05	324.682783
-6.60049	-2.195E-10	324.742306	0.1000046	8.35768E-05	324.742306
-6.80047	-2.283E-10	324.766841	0.1000047	8.30796E-05	324.766841
-7.00049	-2.603E-10	324.791525	0.1000045	8.25793E-05	324.791525
-7.20049	-2.727E-10	324.816127	0.1000046	8.2078E-05	324.816127
-7.40047	-2.681E-10	324.84075	0.1000055	8.15753E-05	324.84075
-7.60049	-2.724E-10	324.865255	0.1000047	8.10698E-05	324.865255
-7.80048	-2.75E-10	324.889786	0.1000053	8.05622E-05	324.889786
-8.00048	-2.859E-10	324.914304	0.1000049	8.00518E-05	324.914304
-8.20048	-2.815E-10	324.938845	0.1000051	7.9542E-05	324.938845
-8.40049	-6.11E-11	324.963371	0.1000058	7.90285E-05	324.963371
-8.60048	-2.756E-10	324.987906	0.1000062	7.85132E-05	324.987906
-8.80047	-2.826E-10	325.01247	0.1000057	7.79945E-05	325.01247
-9.00048	-2.893E-10	325.037003	0.1000051	7.74761E-05	325.037003
-9.20049	-2.988E-10	325.061521	0.1000055	7.69538E-05	325.061521
-9.40048	-2.93E-10	325.086068	0.1000047	7.64284E-05	325.086068
-9.60049	-2.942E-10	325.110591	0.1000051	7.59045E-05	325.110591
-9.80047	-3.077E-10	325.135127	0.1000055	7.53799E-05	325.135127
-10.00048	-3.068E-10	325.159639	0.1000053	7.48527E-05	325.159639
-10.20049	-3.076E-10	325.184173	0.1000058	7.43221E-05	325.184173
-10.40048	-2.607E-10	325.241176	0.1000058	7.37969E-05	325.241176
-10.6004	-4.762E-10	325.2657	0.1000056	7.32622E-05	325.2657
-10.8003	-3.57E-10	325.290233	0.1000039	7.27242E-05	325.290233
-11.00054	-3.31E-10	325.314766	0.1000131	7.21898E-05	325.314766
-11.20046	-3.317E-10	325.339377	0.1000101	7.16456E-05	325.339377
-11.40045	-3.122E-10	325.363903	0.1000094	7.11003E-05	325.363903
-11.60044	-3.337E-10	325.38843	0.1000098	7.05541E-05	325.38843
-11.80044	-3.41E-10	325.412951	0.1000082	7.00042E-05	325.412951
-12.00044	-3.291E-10	325.437488	0.1000088	6.94521E-05	325.437488
