#scan	iMeasureCycle=1	iMux=0	time=0.02	N=222	LocalTime=22/06/2023 01:32:49
#VGate(V)	IGate(A)	time(s)	VDrain(V)	IDrain(A)	time(s)
-12.0005	-3.1781E-09	0.045756	0.1000074	5.39228E-05	0.045756
-11.80048	-2.9851E-09	0.070723	0.1000076	5.45296E-05	0.070723
-11.6005	-1.1456E-09	0.095332	0.1000073	5.51346E-05	0.095332
-11.40049	-5.202E-10	0.11986	0.100007	5.57364E-05	0.11986
-11.20049	-3.379E-10	0.14439	0.1000068	5.63372E-05	0.14439
-11.00048	-2.134E-10	0.168905	0.1000057	5.69355E-05	0.168905
-10.80048	-1.746E-10	0.193432	0.1000061	5.75315E-05	0.193432
-10.6005	-1.127E-10	0.217955	0.1000062	5.81263E-05	0.217955
-10.40047	-6.62E-11	0.242483	0.1000069	5.872E-05	0.242483
-10.2005	-3.88E-11	0.266992	0.1000075	5.93106E-05	0.266992
-10.00051	-3.28E-11	0.291591	0.1000078	5.99004E-05	0.291591
-9.80048	-1.88E-11	0.316109	0.100006	6.04887E-05	0.316109
-9.6005	2.2E-11	0.340636	0.1000067	6.10747E-05	0.340636
-9.40048	3.09E-11	0.365156	0.1000065	6.1659E-05	0.365156
-9.20049	3.28E-11	0.38969	0.1000062	6.22433E-05	0.38969
-9.00048	6.61E-11	0.414293	0.1000068	6.28201E-05	0.414293
-8.8005	6.11E-11	0.438828	0.1000061	6.33965E-05	0.438828
-8.60047	5.96E-11	0.463372	0.100006	6.39679E-05	0.463372
-8.40051	9.76E-11	0.487949	0.1000064	6.45392E-05	0.487949
-8.20048	9.24E-11	0.512482	0.100007	6.51081E-05	0.512482
-8.0005	9.04E-11	0.537013	0.1000062	6.56741E-05	0.537013
-7.80048	1.068E-10	0.561523	0.1000058	6.62396E-05	0.561523
-7.60048	7.06E-11	0.608827	0.1000064	6.6799E-05	0.608827
-7.40049	1.001E-10	0.633443	0.1000056	6.73625E-05	0.633443
-7.2005	1.165E-10	0.657986	0.1000054	6.79232E-05	0.657986
-7.00049	1.334E-10	0.682495	0.1000064	6.8482E-05	0.682495
-6.80048	1.3E-10	0.707043	0.1000071	6.90412E-05	0.707043
-6.60048	1.526E-10	0.731575	0.1000057	6.95955E-05	0.731575
-6.4005	1.518E-10	0.756202	0.1000057	7.01484E-05	0.756202
-6.20048	1.52E-10	0.78073	0.1000048	7.06997E-05	0.78073
-6.00049	1.72E-10	0.805276	0.100006	7.12507E-05	0.805276
-5.8005	1.778E-10	0.82979	0.1000054	7.17986E-05	0.82979
-5.6005	1.72E-10	0.854328	0.100006	7.2345E-05	0.854328
-5.40052	1.749E-10	0.878852	0.1000062	7.28901E-05	0.878852
-5.20049	2.037E-10	0.903393	0.1000063	7.34336E-05	0.903393
-5.00051	1.983E-10	0.927895	0.1000062	7.39748E-05	0.927895
-4.80047	1.88E-10	0.952422	0.1000063	7.45142E-05	0.952422
-4.60048	1.977E-10	0.976936	0.1000056	7.50534E-05	0.976936
-4.40049	3.464E-10	1.001611	0.1000064	7.55917E-05	1.001611
-4.20051	2.403E-10	1.026125	0.1000058	7.6126E-05	1.026125
-4.0005	2.247E-10	1.050644	0.1000062	7.66624E-05	1.050644
-3.80049	1.798E-10	1.110388	0.1000071	7.71921E-05	1.110388
-3.60049	2.118E-10	1.134915	0.1000056	7.77266E-05	1.134915
-3.4005	2.159E-10	1.159454	0.100005	7.82597E-05	1.159454
-3.20049	2.384E-10	1.183976	0.1000059	7.879E-05	1.183976
-3.00048	1.918E-10	1.208544	0.1000057	7.93222E-05	1.208544
-2.8005	2.258E-10	1.233071	0.1000059	7.9852E-05	1.233071
-2.60047	2.267E-10	1.257585	0.1000051	8.03813E-05	1.257585
-2.4005	2.553E-10	1.282104	0.100005	8.09095E-05	1.282104
-2.20048	2.606E-10	1.306632	0.1000046	8.1437E-05	1.306632
-2.00049	2.53E-10	1.331146	0.1000056	8.19635E-05	1.331146
-1.80048	2.735E-10	1.355659	0.1000051	8.249E-05	1.355659
-1.6005	2.64E-10	1.380213	0.1000045	8.30182E-05	1.380213
-1.4005	2.717E-10	1.404697	0.1000051	8.35473E-05	1.404697
-1.20049	2.883E-10	1.42923	0.1000044	8.40812E-05	1.42923
-1.0005	2.841E-10	1.45377	0.1000051	8.46219E-05	1.45377
-0.80051	2.842E-10	1.478291	0.1000038	8.51722E-05	1.478291
-0.6005	2.864E-10	1.502869	0.1000051	8.57363E-05	1.502869
-0.40048	3.237E-10	1.527381	0.1000052	8.63119E-05	1.527381
-0.2005	2.952E-10	1.551915	0.1000054	8.68967E-05	1.551915
-0.00052	2.424E-10	1.612079	0.1000045	8.74802E-05	1.612079
0.19948	2.839E-10	1.636594	0.1000047	8.80797E-05	1.636594
0.39953	3.025E-10	1.661147	0.100005	8.86838E-05	1.661147
0.5995	3.097E-10	1.685661	0.1000051	8.92889E-05	1.685661
0.79949	3.084E-10	1.710236	0.1000044	8.98966E-05	1.710236
0.99949	3.258E-10	1.734818	0.1000048	9.05076E-05	1.734818
1.19946	3.24E-10	1.759448	0.1000056	9.11211E-05	1.759448
1.39947	3.189E-10	1.783951	0.1000047	9.17364E-05	1.783951
1.59951	3.56E-10	1.808498	0.1000051	9.2354E-05	1.808498
1.79951	3.352E-10	1.833012	0.1000046	9.29728E-05	1.833012
1.9995	3.194E-10	1.857543	0.1000045	9.35946E-05	1.857543
2.1995	3.455E-10	1.882069	0.1000044	9.42191E-05	1.882069
2.39949	3.621E-10	1.906599	0.1000044	9.48439E-05	1.906599
2.5995	3.521E-10	1.93113	0.1000038	9.54689E-05	1.93113
2.7995	3.43E-10	1.955646	0.1000042	9.60952E-05	1.955646
2.99952	3.668E-10	1.980173	0.1000045	9.672E-05	1.980173
3.19949	3.712E-10	2.004734	0.1000043	9.73478E-05	2.004734
3.39952	3.657E-10	2.029276	0.1000044	9.79736E-05	2.029276
3.59949	3.705E-10	2.05379	0.1000042	9.85995E-05	2.05379
3.79947	3.101E-10	2.113688	0.1000039	9.92141E-05	2.113688
3.9995	3.493E-10	2.138218	0.1000045	9.984E-05	2.138218
4.19951	3.672E-10	2.162771	0.100004	0.0001004612	2.162771
4.3995	3.817E-10	2.18729	0.1000043	0.0001010807	2.18729
4.59951	3.782E-10	2.211879	0.1000038	0.0001016975	2.211879
4.7995	3.641E-10	2.236395	0.1000047	0.0001023121	2.236395
4.99949	4.032E-10	2.260937	0.1000045	0.0001029216	2.260937
5.19948	3.945E-10	2.285451	0.1000043	0.0001035304	2.285451
5.39949	3.823E-10	2.309985	0.1000053	0.0001041347	2.309985
5.59951	3.347E-10	2.356962	0.0999999	0.000104809	2.356962
5.79951	3.629E-10	2.381457	0.1000001	0.000105407	2.381457
5.99948	5.19E-10	2.406011	0.1	0.000106002	2.406011
6.19949	4.207E-10	2.430608	0.1	0.000106593	2.430608
6.39949	4.021E-10	2.455129	0.1000001	0.000107178	2.455129
6.5995	4.099E-10	2.479644	0.1	0.000107761	2.479644
6.7995	4.224E-10	2.504233	0.0999999	0.00010834	2.504233
6.99949	4.278E-10	2.528787	0.1000004	0.000108917	2.528787
7.19948	4.157E-10	2.553333	0.0999999	0.000109488	2.553333
7.3995	3.385E-10	2.616643	0.0999998	0.000110047	2.616643
7.59951	2.448E-10	2.64127	0.1000001	0.000110612	2.64127
7.79951	4.066E-10	2.665801	0.1	0.000111176	2.665801
7.99948	3.988E-10	2.690347	0.0999998	0.000111732	2.690347
8.1995	3.998E-10	2.714916	0.1	0.000112288	2.714916
8.39951	4.325E-10	2.739446	0.0999999	0.000112842	2.739446
8.59948	4.243E-10	2.764039	0.0999998	0.000113385	2.764039
8.79949	4.271E-10	2.788563	0.0999998	0.000113932	2.788563
8.99951	4.363E-10	2.813073	0.1000001	0.000114471	2.813073
9.19949	4.289E-10	2.837585	0.1000001	0.000115009	2.837585
9.39949	4.403E-10	2.862104	0.1	0.000115547	2.862104
9.59948	4.505E-10	2.886624	0.0999999	0.000116084	2.886624
9.79949	4.459E-10	2.911135	0.0999997	0.000116616	2.911135
9.99949	4.51E-10	2.935654	0.0999998	0.000117143	2.935654
9.99948	3.838E-10	2.958999	0.1000001	0.000117144	2.958999
9.7995	3.117E-10	2.983533	0.0999998	0.000116616	2.983533
9.5995	2.731E-10	3.008101	0.0999999	0.000116082	3.008101
9.39949	2.214E-10	3.032628	0.0999999	0.000115548	3.032628
9.1995	2.067E-10	3.057124	0.0999999	0.00011501	3.057124
8.99949	2.184E-10	3.11225	0.1000001	0.000114471	3.11225
8.79952	1.688E-10	3.136801	0.0999998	0.000113922	3.136801
8.59951	1.456E-10	3.161341	0.1	0.00011337	3.161341
8.3995	1.288E-10	3.185856	0.1000002	0.000112814	3.185856
8.19952	1.327E-10	3.210427	0.1	0.000112252	3.210427
7.9995	9.73E-11	3.234957	0.1	0.000111689	3.234957
7.79952	9.18E-11	3.259474	0.1000002	0.00011112	3.259474
7.59951	8.89E-11	3.283999	0.1000001	0.000110552	3.283999
7.39951	7.66E-11	3.308495	0.1000002	0.000109978	3.308495
7.19949	5.99E-11	3.333016	0.1	0.000109403	3.333016
6.9995	4.19E-11	3.357517	0.1000001	0.000108825	3.357517
6.7995	4.73E-11	3.382023	0.0999998	0.00010824	3.382023
6.59952	4.33E-11	3.40654	0.1000001	0.000107653	3.40654
6.39952	1.36E-11	3.431184	0.1000002	0.000107063	3.431184
6.19948	2.44E-11	3.455719	0.1	0.000106472	3.455719
5.99949	8.1E-12	3.480223	0.1	0.000105873	3.480223
5.79951	-1.18E-11	3.504813	0.0999999	0.000105274	3.504813
5.59952	-6.2E-12	3.529336	0.0999999	0.00010467	3.529336
5.3995	-3.8E-12	3.553881	0.1	0.000104061	3.553881
5.1995	2.66E-11	3.602309	0.0999999	0.000103454	3.602309
4.9995	1.7E-12	3.626894	0.0999999	0.000102841	3.626894
4.79948	-2.33E-11	3.651724	0.0999999	0.000102224	3.651724
4.59951	-4.62E-11	3.676256	0.1	0.000101605	3.676256
4.3995	-3.99E-11	3.702463	0.1000002	0.000100982	3.702463
4.19949	-3.25E-11	3.726997	0.0999999	0.000100357	3.726997
3.9995	-5.64E-11	3.751642	0.1000003	9.9732E-05	3.751642
3.79951	-8.28E-11	3.776188	0.0999999	9.9102E-05	3.776188
3.59951	-7.18E-11	3.800706	0.0999999	9.8473E-05	3.800706
3.39951	6.04E-11	3.825245	0.1000001	9.7842E-05	3.825245
3.19951	-6.98E-11	3.849763	0.1000004	9.7212E-05	3.849763
2.99951	-8.55E-11	3.874294	0.1	9.6581E-05	3.874294
2.79952	-8.56E-11	3.89883	0.0999999	9.595E-05	3.89883
2.59949	-8.27E-11	3.923462	0.1	9.5321E-05	3.923462
2.39951	-9.86E-11	3.947991	0.1	9.4692E-05	3.947991
2.19952	-1.105E-10	3.972516	0.1000001	9.4065E-05	3.972516
1.9995	-1.011E-10	3.997085	0.0999999	9.3437E-05	3.997085
1.79949	-1.181E-10	4.021619	0.1	9.2813E-05	4.021619
1.59953	-2.45E-10	4.046139	0.1	9.2194E-05	4.046139
1.39948	-1.387E-10	4.070662	0.1	9.1571E-05	4.070662
1.1995	-9.68E-11	4.115982	0.1	9.0958E-05	4.115982
0.9995	-1.323E-10	4.140521	0.1000002	9.0342E-05	4.140521
0.79948	-1.519E-10	4.165054	0.0999999	8.9729E-05	4.165054
0.59951	-1.344E-10	4.189595	0.1000001	8.912E-05	4.189595
0.39952	-1.474E-10	4.217485	0.1000045	8.84323E-05	4.217485
0.19951	-1.458E-10	4.24202	0.1000053	8.7829E-05	4.24202
-0.00049	-1.578E-10	4.266527	0.1000049	8.72309E-05	4.266527
-0.20051	-1.781E-10	4.291025	0.1000054	8.66401E-05	4.291025
-0.40049	-1.681E-10	4.31554	0.1000052	8.60585E-05	4.31554
-0.60048	-1.733E-10	4.340061	0.1000047	8.54896E-05	4.340061
-0.80049	-1.915E-10	4.364575	0.1000057	8.49355E-05	4.364575
-1.00047	-1.803E-10	4.389094	0.1000056	8.43921E-05	4.389094
-1.20049	-1.89E-10	4.413579	0.1000052	8.38568E-05	4.413579
-1.4005	-2.029E-10	4.438111	0.100006	8.33278E-05	4.438111
-1.60048	-2.064E-10	4.462639	0.100005	8.28008E-05	4.462639
-1.8005	-1.967E-10	4.487146	0.1000053	8.22744E-05	4.487146
-2.00045	-2.136E-10	4.511716	0.1000057	8.17486E-05	4.511716
-2.20047	-2.225E-10	4.53624	0.1000049	8.12223E-05	4.53624
-2.4005	-2.259E-10	4.56078	0.1000049	8.06957E-05	4.56078
-2.60049	-1.566E-10	4.624473	0.1000062	8.01709E-05	4.624473
-2.8005	-1.845E-10	4.649031	0.1000052	7.96407E-05	4.649031
-3.00049	-2.148E-10	4.67357	0.1000042	7.91096E-05	4.67357
-3.20049	-2.41E-10	4.698108	0.1000056	7.85804E-05	4.698108
-3.40049	-2.164E-10	4.722674	0.1000054	7.80493E-05	4.722674
-3.60049	-2.201E-10	4.747306	0.1000052	7.75166E-05	4.747306
-3.8005	-2.465E-10	4.771828	0.1000053	7.69835E-05	4.771828
-4.00049	-2.447E-10	4.796357	0.1000055	7.6449E-05	4.796357
-4.20049	-2.362E-10	4.820865	0.1000062	7.59126E-05	4.820865
-4.40051	-2.512E-10	4.845402	0.1000058	7.5376E-05	4.845402
-4.60048	-2.63E-10	4.869912	0.100006	7.48376E-05	4.869912
-4.80049	-2.586E-10	4.89446	0.1000057	7.42985E-05	4.89446
-5.0005	-2.544E-10	4.918977	0.1000055	7.37569E-05	4.918977
-5.20048	-2.723E-10	4.943518	0.1000061	7.32133E-05	4.943518
-5.40051	-2.658E-10	4.968029	0.1000059	7.26681E-05	4.968029
-5.60049	-2.555E-10	4.992796	0.1000056	7.21212E-05	4.992796
-5.80048	-2.831E-10	5.017329	0.1000047	7.15726E-05	5.017329
-6.0005	-2.923E-10	5.041844	0.1000045	7.10237E-05	5.041844
-6.2005	-2.77E-10	5.066382	0.1000054	7.04716E-05	5.066382
-6.40049	-2.317E-10	5.123235	0.1000057	6.9921E-05	5.123235
-6.60048	-2.622E-10	5.147852	0.1000055	6.93653E-05	5.147852
-6.80046	-2.779E-10	5.172385	0.1000062	6.88085E-05	5.172385
-7.0005	-2.838E-10	5.196893	0.1000059	6.82494E-05	5.196893
-7.20047	-1.806E-10	5.221462	0.1000063	6.76891E-05	5.221462
-7.40049	-2.516E-10	5.245979	0.1000072	6.71269E-05	5.245979
-7.60048	-2.9E-10	5.270492	0.1000074	6.65614E-05	5.270492
-7.80048	-3.023E-10	5.295004	0.100007	6.59953E-05	5.295004
-8.00047	-2.977E-10	5.319515	0.1000059	6.54265E-05	5.319515
-8.20048	-3.035E-10	5.344037	0.1000063	6.4857E-05	5.344037
-8.40048	-3.091E-10	5.368553	0.1000062	6.42858E-05	5.368553
-8.60048	-3.149E-10	5.393076	0.1000071	6.37113E-05	5.393076
-8.80049	-3.116E-10	5.417611	0.1000068	6.31359E-05	5.417611
-9.0005	-3.225E-10	5.442143	0.1000062	6.25568E-05	5.442143
-9.20049	-4.018E-10	5.466661	0.1000067	6.19785E-05	5.466661
-9.40049	-3.354E-10	5.491184	0.1000066	6.13963E-05	5.491184
-9.60051	-3.303E-10	5.51578	0.1000068	6.08141E-05	5.51578
-9.80049	-3.457E-10	5.54041	0.1000056	6.0233E-05	5.54041
-10.00046	-3.424E-10	5.564943	0.1000068	5.96475E-05	5.564943
-10.20048	-2.787E-10	5.624826	0.100006	5.90687E-05	5.624826
-10.40049	-3.214E-10	5.649349	0.1000061	5.84803E-05	5.649349
-10.60051	-3.284E-10	5.673891	0.1000067	5.78915E-05	5.673891
-10.80048	-3.408E-10	5.698415	0.1000059	5.72994E-05	5.698415
-11.00049	-3.376E-10	5.722979	0.1000068	5.67062E-05	5.722979
-11.20049	-3.488E-10	5.74751	0.1000071	5.61111E-05	5.74751
-11.4005	-3.451E-10	5.772127	0.1000063	5.55135E-05	5.772127
-11.60049	-3.567E-10	5.796637	0.1000074	5.49151E-05	5.796637
-11.80048	-3.685E-10	5.821177	0.1000058	5.43138E-05	5.821177
-12.00045	-3.579E-10	5.845697	0.1000061	5.37115E-05	5.845697
#scan	iMeasureCycle=2	iMux=0	time=279.687	N=222	LocalTime=22/06/2023 01:37:28
#VGate(V)	IGate(A)	time(s)	VDrain(V)	IDrain(A)	time(s)
-12.00047	-9.28E-11	279.694484	0.1000065	5.37523E-05	279.694484
-11.80048	-4.81E-11	279.719363	0.1000066	5.43584E-05	279.719363
-11.60048	-2.33E-11	279.745352	0.1000069	5.49612E-05	279.745352
-11.40049	2.26E-11	279.76987	0.1000077	5.55635E-05	279.76987
-11.20048	3.58E-11	279.794393	0.1000061	5.61621E-05	279.794393
-11.00047	3.31E-11	279.818907	0.1000064	5.67605E-05	279.818907
-10.80047	4.07E-11	279.843431	0.1000071	5.73565E-05	279.843431
-10.60048	7.12E-11	279.867946	0.1000069	5.79519E-05	279.867946
-10.40047	-9.9E-12	279.892437	0.1000063	5.85438E-05	279.892437
-10.20049	4.81E-11	279.916971	0.1000063	5.9134E-05	279.916971
-10.00048	7.77E-11	279.941493	0.1000071	5.97237E-05	279.941493
-9.80048	8.67E-11	279.966078	0.1000075	6.03129E-05	279.966078
-9.60049	9.54E-11	279.990597	0.1000062	6.08976E-05	279.990597
-9.40048	1.011E-10	280.015126	0.1000066	6.14832E-05	280.015126
-9.20049	9.56E-11	280.039737	0.1000061	6.20652E-05	280.039737
-9.00048	1.208E-10	280.064266	0.1000065	6.26426E-05	280.064266
-8.8005	1.142E-10	280.088777	0.1000062	6.32191E-05	280.088777
-8.6005	1.345E-10	280.113306	0.1000043	6.37912E-05	280.113306
-8.4005	1.409E-10	280.137836	0.1000065	6.43641E-05	280.137836
-8.20049	1.271E-10	280.162374	0.1000059	6.49328E-05	280.162374
-8.00051	1.456E-10	280.186882	0.1000054	6.55005E-05	280.186882
-7.8005	1.706E-10	280.211398	0.1000056	6.60664E-05	280.211398
-7.6005	1.242E-10	280.258411	0.1000051	6.66276E-05	280.258411
-7.40051	1.481E-10	280.282931	0.100006	6.71916E-05	280.282931
-7.20046	1.47E-10	280.307451	0.1000057	6.77528E-05	280.307451
-7.00049	1.663E-10	280.331967	0.100006	6.83131E-05	280.331967
-6.80049	1.774E-10	280.356536	0.1000059	6.88723E-05	280.356536
-6.60046	1.556E-10	280.381061	0.1000054	6.94286E-05	280.381061
-6.40051	1.78E-10	280.405561	0.1000058	6.99825E-05	280.405561
-6.20047	1.983E-10	280.430159	0.1000048	7.0535E-05	280.430159
-6.0005	1.968E-10	280.454682	0.1000064	7.10864E-05	280.454682
-5.8005	1.882E-10	280.479254	0.1000059	7.16359E-05	280.479254
-5.60052	1.975E-10	280.503779	0.1000052	7.21828E-05	280.503779
-5.4005	2.146E-10	280.528289	0.100006	7.27298E-05	280.528289
-5.2005	2.148E-10	280.552836	0.1000053	7.32752E-05	280.552836
-5.00049	2.029E-10	280.577345	0.1000057	7.38155E-05	280.577345
-4.80047	2.37E-10	280.601967	0.1000051	7.43573E-05	280.601967
-4.60048	2.226E-10	280.6265	0.1000052	7.48966E-05	280.6265
-4.40049	2.264E-10	280.651045	0.100005	7.54349E-05	280.651045
-4.2005	2.321E-10	280.675559	0.100006	7.59733E-05	280.675559
-4.00049	2.362E-10	280.700092	0.100006	7.65078E-05	280.700092
-3.8005	1.615E-10	280.759961	0.1000055	7.704E-05	280.759961
-3.60049	2.108E-10	280.784483	0.1000056	7.75743E-05	280.784483
-3.40048	2.456E-10	280.809001	0.1000048	7.81073E-05	280.809001
-3.20047	2.293E-10	280.833513	0.1000066	7.86391E-05	280.833513
-3.00048	2.359E-10	280.858093	0.1000059	7.91705E-05	280.858093
-2.80049	2.548E-10	280.882611	0.1000052	7.97004E-05	280.882611
-2.60048	2.51E-10	280.907154	0.100005	8.02292E-05	280.907154
-2.40049	3.427E-10	280.931752	0.1000053	8.07594E-05	280.931752
-2.20051	2.772E-10	280.956297	0.1000053	8.12871E-05	280.956297
-2.00048	2.69E-10	280.980856	0.1000055	8.18144E-05	280.980856
-1.80051	2.834E-10	281.00538	0.1000053	8.23417E-05	281.00538
-1.60051	2.825E-10	281.029961	0.100005	8.28692E-05	281.029961
-1.40049	2.993E-10	281.054582	0.1000052	8.33989E-05	281.054582
-1.20049	2.867E-10	281.079098	0.1000051	8.39312E-05	281.079098
-1.00052	2.833E-10	281.103606	0.1000043	8.44734E-05	281.103606
-0.8005	2.977E-10	281.128138	0.1000056	8.50245E-05	281.128138
-0.60048	3.083E-10	281.152682	0.1000053	8.55868E-05	281.152682
-0.40048	2.913E-10	281.177199	0.1000056	8.61622E-05	281.177199
-0.20052	2.976E-10	281.201697	0.1000051	8.67466E-05	281.201697
-0.0005	2.569E-10	281.26167	0.1000054	8.73337E-05	281.26167
0.19949	1.936E-10	281.286188	0.1000049	8.79341E-05	281.286188
0.39951	2.838E-10	281.310712	0.1000039	8.85371E-05	281.310712
0.59949	3.056E-10	281.335214	0.1000045	8.91457E-05	281.335214
0.7995	2.921E-10	281.35978	0.1000048	8.97548E-05	281.35978
0.99951	3.087E-10	281.384271	0.1000045	9.03665E-05	281.384271
1.19948	3.17E-10	281.40879	0.1000045	9.09793E-05	281.40879
1.39951	3.207E-10	281.433304	0.100004	9.15957E-05	281.433304
1.59949	3.272E-10	281.457835	0.1000042	9.22147E-05	281.457835
1.79949	3.123E-10	281.482402	0.1000052	9.28345E-05	281.482402
1.9995	3.482E-10	281.506931	0.1000051	9.34587E-05	281.506931
2.19948	3.538E-10	281.53143	0.1000042	9.40821E-05	281.53143
2.39949	3.272E-10	281.556057	0.1000045	9.47084E-05	281.556057
2.59953	3.302E-10	281.580565	0.1000041	9.53348E-05	281.580565
2.7995	3.613E-10	281.605168	0.1000039	9.59617E-05	281.605168
2.99949	3.549E-10	281.629704	0.1000046	9.65893E-05	281.629704
3.19949	5.067E-10	281.654223	0.1000054	9.7218E-05	281.654223
3.39947	3.486E-10	281.678734	0.100005	9.78452E-05	281.678734
3.59953	3.549E-10	281.703243	0.1000045	9.84717E-05	281.703243
3.79949	2.943E-10	281.763286	0.1000043	9.9091E-05	281.763286
3.9995	3.635E-10	281.7878	0.1000039	9.97176E-05	281.7878
4.19948	3.584E-10	281.812338	0.1000032	0.0001003393	281.812338
4.39948	3.504E-10	281.836858	0.1000042	0.0001009626	281.836858
4.59949	3.615E-10	281.861447	0.1000043	0.0001015808	281.861447
4.79947	3.785E-10	281.885963	0.1000044	0.0001021968	281.885963
4.99947	3.879E-10	281.910483	0.1000043	0.0001028086	281.910483
5.19949	3.735E-10	281.935091	0.1000036	0.0001034168	281.935091
5.39947	3.887E-10	281.959679	0.1000028	0.0001040224	281.959679
5.59949	3.881E-10	281.984258	0.1000043	0.0001046245	281.984258
5.79948	3.768E-10	282.013837	0.0999999	0.000105299	282.013837
5.9995	3.853E-10	282.038467	0.1000001	0.000105895	282.038467
6.19947	3.902E-10	282.062953	0.0999996	0.000106488	282.062953
6.39949	3.979E-10	282.087485	0.0999998	0.000107075	282.087485
6.5995	4.175E-10	282.112004	0.1000003	0.000107659	282.112004
6.79949	4.004E-10	282.136552	0.1000001	0.00010824	282.136552
6.99949	3.91E-10	282.161085	0.1	0.000108818	282.161085
7.19948	4.242E-10	282.185633	0.1	0.000109389	282.185633
7.39948	4.25E-10	282.210141	0.1	0.000109956	282.210141
7.59947	3.718E-10	282.267661	0.1000001	0.000110517	282.267661
7.79948	4.108E-10	282.292183	0.0999997	0.00011108	282.292183
7.99947	4.075E-10	282.31671	0.1000001	0.00011164	282.31671
8.1995	6.01E-10	282.341218	0.0999999	0.000112196	282.341218
8.39949	4.425E-10	282.365815	0.0999999	0.000112749	282.365815
8.5995	4.459E-10	282.390327	0.0999998	0.000113295	282.390327
8.79949	4.347E-10	282.414856	0.1000001	0.000113841	282.414856
8.9995	4.4E-10	282.439366	0.0999999	0.000114382	282.439366
9.19952	4.514E-10	282.463902	0.1000002	0.000114923	282.463902
9.3995	3.208E-10	282.488462	0.1	0.000115462	282.488462
9.59948	4.398E-10	282.512992	0.0999998	0.000115998	282.512992
9.79949	4.495E-10	282.537491	0.1	0.000116531	282.537491
9.99948	4.334E-10	282.56204	0.0999999	0.00011706	282.56204
9.99949	3.991E-10	282.585392	0.0999995	0.00011706	282.585392
9.79951	3.245E-10	282.61001	0.1000001	0.00011653	282.61001
9.59951	2.601E-10	282.634541	0.1	0.000115997	282.634541
9.39948	2.261E-10	282.659078	0.1	0.000115465	282.659078
9.1995	2.2E-10	282.68359	0.1	0.000114927	282.68359
8.99949	1.917E-10	282.708114	0.1	0.000114386	282.708114
8.79949	1.987E-10	282.762106	0.0999998	0.000113839	282.762106
8.59948	1.511E-10	282.786628	0.1	0.000113283	282.786628
8.39951	1.513E-10	282.811154	0.1000001	0.00011273	282.811154
8.1995	1.321E-10	282.835674	0.0999999	0.000112167	282.835674
7.99948	1.096E-10	282.860343	0.1000001	0.000111601	282.860343
7.79952	9.28E-11	282.884862	0.1	0.000111034	282.884862
7.59949	1.052E-10	282.909385	0.1	0.000110463	282.909385
7.39952	7.99E-11	282.933893	0.0999999	0.000109891	282.933893
7.1995	5.67E-11	282.958589	0.1	0.000109312	282.958589
6.99951	6.23E-11	282.983138	0.1000001	0.000108732	282.983138
6.79951	5.26E-11	283.00764	0.1000001	0.00010815	283.00764
6.5995	3.33E-11	283.032147	0.1	0.000107562	283.032147
6.39949	2.71E-11	283.056656	0.0999999	0.000106973	283.056656
6.1995	2.78E-11	283.081176	0.1	0.000106381	283.081176
5.99947	1.28E-11	283.105688	0.0999999	0.000105784	283.105688
5.79953	5E-13	283.130228	0.1000002	0.000105184	283.130228
5.59951	2.6E-12	283.154728	0.1000003	0.000104579	283.154728
5.39951	8E-13	283.179246	0.1000001	0.000103971	283.179246
5.1995	-2.36E-11	283.203766	0.0999997	0.000103361	283.203766
4.99949	5.22E-11	283.25191	0.1000001	0.000102747	283.25191
4.7995	-1.74E-11	283.276531	0.1	0.00010213	283.276531
4.59951	-4.54E-11	283.301142	0.1000002	0.000101509	283.301142
4.39951	-1.82E-11	283.325673	0.0999999	0.000100887	283.325673
4.1995	-2.06E-11	283.35185	0.1000001	0.000100262	283.35185
3.9995	-4.71E-11	283.376392	0.1	9.9634E-05	283.376392
3.79951	-6.71E-11	283.40095	0.1000001	9.9008E-05	283.40095
3.59951	-5.7E-11	283.425457	0.1000001	9.8379E-05	283.425457
3.39949	-5.85E-11	283.450005	0.1	9.7746E-05	283.450005
3.19952	-8.54E-11	283.474527	0.1	9.7115E-05	283.474527
2.99948	-8.87E-11	283.499055	0.1000002	9.6484E-05	283.499055
2.79949	-7.23E-11	283.523573	0.1	9.5853E-05	283.523573
2.59948	-9.66E-11	283.548098	0.1	9.5224E-05	283.548098
2.39948	-1.084E-10	283.572605	0.1000001	9.4596E-05	283.572605
2.19952	-9.38E-11	283.59713	0.0999999	9.3968E-05	283.59713
1.99951	-1.194E-10	283.621719	0.0999998	9.334E-05	283.621719
1.79949	-1.165E-10	283.646271	0.1	9.2716E-05	283.646271
1.59953	-1.156E-10	283.670793	0.1	9.2096E-05	283.670793
1.39951	-1.293E-10	283.695306	0.0999996	9.1476E-05	283.695306
1.1995	-1.32E-10	283.719806	0.1	9.0858E-05	283.719806
0.99951	-5.76E-11	283.769693	0.1000002	9.0245E-05	283.769693
0.79952	-1.174E-10	283.79424	0.0999998	8.9632E-05	283.79424
0.59951	-1.38E-10	283.818748	0.1	8.9022E-05	283.818748
0.39949	-1.326E-10	283.843279	0.1000001	8.8415E-05	283.843279
0.19951	-1.362E-10	283.867852	0.0999999	8.7812E-05	283.867852
-0.00051	-1.251E-10	283.895723	0.1000049	8.71326E-05	283.895723
-0.20048	-1.53E-10	283.92026	0.1000049	8.65429E-05	283.92026
-0.4005	-1.707E-10	283.944851	0.1000048	8.59616E-05	283.944851
-0.60048	-1.635E-10	283.969395	0.1000051	8.53941E-05	283.969395
-0.80048	-1.943E-10	283.993953	0.100006	8.48383E-05	283.993953
-1.0005	-2.457E-10	284.018476	0.100005	8.42961E-05	284.018476
-1.20049	-2.029E-10	284.043084	0.1000047	8.37614E-05	284.043084
-1.40047	-1.88E-10	284.067611	0.1000051	8.32307E-05	284.067611
-1.60049	-2.09E-10	284.092125	0.100005	8.27049E-05	284.092125
-1.80049	-2.081E-10	284.116648	0.1000051	8.21784E-05	284.116648
-2.0005	-2.097E-10	284.141169	0.1000049	8.16524E-05	284.141169
-2.20048	-2.193E-10	284.165691	0.1000059	8.11262E-05	284.165691
-2.4005	-2.149E-10	284.190209	0.1000047	8.05991E-05	284.190209
-2.60049	-2.275E-10	284.214727	0.1000064	8.00722E-05	284.214727
-2.80051	-1.62E-10	284.274151	0.1000051	7.95442E-05	284.274151
-3.0005	-2.105E-10	284.298834	0.1000062	7.90153E-05	284.298834
-3.20048	-2.153E-10	284.32339	0.1000057	7.84837E-05	284.32339
-3.40048	-2.138E-10	284.347932	0.1000052	7.79527E-05	284.347932
-3.60048	-2.181E-10	284.372577	0.1000057	7.74213E-05	284.372577
-3.80049	-2.405E-10	284.397105	0.1000051	7.68865E-05	284.397105
-4.0005	-2.388E-10	284.421625	0.1000046	7.63528E-05	284.421625
-4.20052	-2.318E-10	284.446141	0.1000047	7.58174E-05	284.446141
-4.4005	-2.496E-10	284.470651	0.1000053	7.52796E-05	284.470651
-4.60047	-2.581E-10	284.495225	0.1000048	7.47426E-05	284.495225
-4.80046	-2.373E-10	284.519741	0.1000062	7.42026E-05	284.519741
-5.0005	-2.622E-10	284.54425	0.1000051	7.36614E-05	284.54425
-5.20049	-2.708E-10	284.568762	0.1000057	7.3118E-05	284.568762
-5.40047	-2.634E-10	284.59334	0.1000065	7.2574E-05	284.59334
-5.6005	-2.739E-10	284.617958	0.1000052	7.20277E-05	284.617958
-5.80047	-2.772E-10	284.642481	0.1000053	7.14789E-05	284.642481
-6.00049	-2.785E-10	284.667021	0.1000061	7.09298E-05	284.667021
-6.20049	-2.742E-10	284.691483	0.1000056	7.03783E-05	284.691483
-6.40049	-2.744E-10	284.716018	0.100006	6.98244E-05	284.716018
-6.60048	-2.069E-10	284.77279	0.1000052	6.92718E-05	284.77279
-6.80048	-2.703E-10	284.797345	0.1000055	6.87146E-05	284.797345
-7.00049	-2.949E-10	284.821891	0.100006	6.81553E-05	284.821891
-7.20047	-2.723E-10	284.846432	0.1000066	6.75941E-05	284.846432
-7.40049	-2.802E-10	284.870993	0.1000058	6.70308E-05	284.870993
-7.60048	-3.016E-10	284.89553	0.1000063	6.64672E-05	284.89553
-7.80048	-2.93E-10	284.920041	0.100006	6.59015E-05	284.920041
-8.00048	-2.944E-10	284.944596	0.1000052	6.53344E-05	284.944596
-8.20049	-2.981E-10	284.969121	0.1000071	6.47645E-05	284.969121
-8.40047	-3.165E-10	284.993746	0.1000066	6.41919E-05	284.993746
-8.60048	-3.039E-10	285.018278	0.1000069	6.36187E-05	285.018278
-8.80047	-3.076E-10	285.042781	0.1000053	6.30413E-05	285.042781
-9.00048	-3.229E-10	285.067311	0.1000058	6.24643E-05	285.067311
-9.20048	-3.232E-10	285.091825	0.1000058	6.18847E-05	285.091825
-9.40049	-3.099E-10	285.116375	0.1000056	6.13027E-05	285.116375
-9.60049	-2.532E-10	285.140916	0.1000052	6.07203E-05	285.140916
-9.80048	-2.958E-10	285.165458	0.1000057	6.0139E-05	285.165458
-10.00048	-3.113E-10	285.189981	0.1000061	5.95546E-05	285.189981
-10.20047	-3.292E-10	285.214527	0.1000068	5.89699E-05	285.214527
-10.40048	-2.639E-10	285.281042	0.1000051	5.83881E-05	285.281042
-10.6005	-2.99E-10	285.305604	0.1000065	5.77999E-05	285.305604
-10.80047	-3.177E-10	285.330131	0.100007	5.72079E-05	285.330131
-11.00047	-3.241E-10	285.354652	0.1000068	5.66146E-05	285.354652
-11.20048	-3.076E-10	285.380259	0.1000071	5.60189E-05	285.380259
-11.40049	-3.326E-10	285.404803	0.1000061	5.54213E-05	285.404803
-11.60047	-3.517E-10	285.429329	0.1000077	5.48227E-05	285.429329
-11.80048	-3.457E-10	285.45386	0.1000078	5.42215E-05	285.45386
-12.00048	-3.439E-10	285.478506	0.1000064	5.36189E-05	285.478506
#scan	iMeasureCycle=3	iMux=0	time=319.754	N=222	LocalTime=22/06/2023 01:38:09
#VGate(V)	IGate(A)	time(s)	VDrain(V)	IDrain(A)	time(s)
-12.00047	-5.33E-11	319.761517	0.1000064	5.37647E-05	319.761517
-11.8005	-1.13E-11	319.786393	0.1000069	5.43702E-05	319.786393
-11.60049	1.4E-12	319.812498	0.1000061	5.49726E-05	319.812498
-11.4005	1.81E-11	319.837037	0.100006	5.55738E-05	319.837037
-11.20048	5.55E-11	319.861561	0.1000065	5.61738E-05	319.861561
-11.00049	6.05E-11	319.886065	0.1000053	5.67711E-05	319.886065
-10.80048	5.61E-11	319.910587	0.1000058	5.7367E-05	319.910587
-10.60051	7.5E-11	319.935107	0.1000057	5.79615E-05	319.935107
-10.4005	1.066E-10	319.959678	0.1000067	5.85549E-05	319.959678
-10.20049	8.86E-11	319.984215	0.1000068	5.9145E-05	319.984215
-10.00048	8.78E-11	320.008719	0.1000059	5.97327E-05	320.008719
-9.80048	1.091E-10	320.033383	0.1000068	6.03221E-05	320.033383
-9.6005	1.121E-10	320.057987	0.1000065	6.09076E-05	320.057987
-9.4005	1.293E-10	320.082522	0.1000062	6.14924E-05	320.082522
-9.20049	1.247E-10	320.107023	0.1000065	6.20746E-05	320.107023
-9.0005	1.261E-10	320.131651	0.1000067	6.26526E-05	320.131651
-8.80051	1.46E-10	320.156166	0.1000058	6.32286E-05	320.156166
-8.60051	1.364E-10	320.180692	0.1000051	6.37999E-05	320.180692
-8.40049	1.528E-10	320.205228	0.1000061	6.43709E-05	320.205228
-8.20048	1.59E-10	320.229732	0.1000063	6.49414E-05	320.229732
-8.0005	1.46E-10	320.254232	0.1000051	6.55088E-05	320.254232
-7.8005	1.706E-10	320.278736	0.1000065	6.60731E-05	320.278736
-7.60052	1.095E-10	320.325251	0.100005	6.66346E-05	320.325251
-7.40049	1.597E-10	320.349887	0.1000059	6.71988E-05	320.349887
-7.20053	1.735E-10	320.374419	0.1000043	6.77596E-05	320.374419
-7.0005	1.65E-10	320.39894	0.100006	6.83192E-05	320.39894
-6.80049	1.892E-10	320.423505	0.1000052	6.88777E-05	320.423505
-6.60051	1.902E-10	320.448022	0.1000062	6.94348E-05	320.448022
-6.40051	1.805E-10	320.472536	0.1000053	6.99872E-05	320.472536
-6.20049	1.843E-10	320.497079	0.1000058	7.054E-05	320.497079
-6.00049	2.12E-10	320.521678	0.1000048	7.10908E-05	320.521678
-5.8005	2.121E-10	320.546247	0.1000053	7.164E-05	320.546247
-5.6005	1.944E-10	320.570784	0.1000054	7.21874E-05	320.570784
-5.40049	2.123E-10	320.595293	0.1000051	7.2732E-05	320.595293
-5.20049	2.454E-10	320.619835	0.100006	7.32781E-05	320.619835
-5.00049	2.177E-10	320.644349	0.1000059	7.38201E-05	320.644349
-4.80046	2.179E-10	320.668883	0.1000057	7.43597E-05	320.668883
-4.6005	2.389E-10	320.693569	0.1000061	7.49003E-05	320.693569
-4.40049	2.337E-10	320.718119	0.1000048	7.54371E-05	320.718119
-4.2005	2.248E-10	320.742646	0.1000053	7.59733E-05	320.742646
-4.00051	2.409E-10	320.767178	0.1000059	7.65097E-05	320.767178
-3.80051	1.866E-10	320.826877	0.1000053	7.70401E-05	320.826877
-3.60051	2.066E-10	320.851402	0.1000053	7.7574E-05	320.851402
-3.4005	2.445E-10	320.875917	0.100005	7.8107E-05	320.875917
-3.2005	2.564E-10	320.900533	0.1000055	7.86384E-05	320.900533
-3.00048	2.352E-10	320.92512	0.1000045	7.91686E-05	320.92512
-2.8005	2.431E-10	320.949655	0.1000041	7.96993E-05	320.949655
-2.6005	2.676E-10	320.974172	0.100005	8.02293E-05	320.974172
-2.40052	2.614E-10	320.998686	0.100005	8.07557E-05	320.998686
-2.20048	4.145E-10	321.023384	0.100006	8.12834E-05	321.023384
-2.0005	2.82E-10	321.04795	0.1000054	8.18114E-05	321.04795
-1.80052	2.887E-10	321.072491	0.1000055	8.23391E-05	321.072491
-1.60053	2.836E-10	321.096996	0.1000052	8.28656E-05	321.096996
-1.40049	2.838E-10	321.121595	0.1000053	8.33949E-05	321.121595
-1.20049	2.958E-10	321.146129	0.1000051	8.39279E-05	321.146129
-1.00051	2.864E-10	321.170656	0.100005	8.4467E-05	321.170656
-0.80051	2.884E-10	321.195182	0.1000054	8.50183E-05	321.195182
-0.60051	3.084E-10	321.219697	0.1000052	8.5581E-05	321.219697
-0.40047	3.077E-10	321.244213	0.1000052	8.61558E-05	321.244213
-0.20053	1.881E-10	321.26874	0.1000052	8.67399E-05	321.26874
-0.0005	2.343E-10	321.328442	0.1000037	8.73253E-05	321.328442
0.1995	2.911E-10	321.353102	0.1000054	8.79271E-05	321.353102
0.39952	2.917E-10	321.377644	0.1000046	8.8531E-05	321.377644
0.59952	2.875E-10	321.402151	0.1000048	8.91385E-05	321.402151
0.79948	3.156E-10	321.42673	0.1000043	8.97486E-05	321.42673
0.99948	3.037E-10	321.451254	0.1000041	9.036E-05	321.451254
1.19949	3.146E-10	321.475776	0.1000044	9.0974E-05	321.475776
1.3995	3.29E-10	321.500317	0.1000042	9.15898E-05	321.500317
1.5995	3.32E-10	321.524837	0.1000048	9.22097E-05	321.524837
1.79951	3.225E-10	321.549409	0.1000047	9.2831E-05	321.549409
1.99948	3.28E-10	321.57394	0.1000051	9.34531E-05	321.57394
2.19951	3.428E-10	321.598454	0.100004	9.40778E-05	321.598454
2.3995	3.482E-10	321.622974	0.1000053	9.47044E-05	321.622974
2.59951	3.254E-10	321.647581	0.1000038	9.53305E-05	321.647581
2.79949	3.487E-10	321.672099	0.1000049	9.59569E-05	321.672099
2.9995	3.568E-10	321.696694	0.1000041	9.65858E-05	321.696694
3.1995	3.467E-10	321.721223	0.1000046	9.72144E-05	321.721223
3.39949	3.452E-10	321.745741	0.1000032	9.78401E-05	321.745741
3.5995	3.635E-10	321.770312	0.1000039	9.8468E-05	321.770312
3.79946	2.939E-10	321.830301	0.100004	9.90875E-05	321.830301
3.99949	3.303E-10	321.854826	0.1000045	9.97147E-05	321.854826
4.19949	3.717E-10	321.87937	0.1000038	0.0001003389	321.87937
4.39949	3.597E-10	321.903886	0.1000045	0.0001009594	321.903886
4.59952	3.546E-10	321.928461	0.1000035	0.0001015787	321.928461
4.79949	3.745E-10	321.952979	0.1000033	0.0001021946	321.952979
4.99949	3.821E-10	321.977516	0.1000038	0.0001028073	321.977516
5.19951	3.815E-10	322.00202	0.1000034	0.0001034162	322.00202
5.39948	3.685E-10	322.026633	0.1000035	0.0001040231	322.026633
5.5995	3.799E-10	322.051258	0.1000034	0.0001046258	322.051258
5.79949	3.671E-10	322.080826	0.0999999	0.000105302	322.080826
5.99948	3.909E-10	322.105378	0.0999998	0.000105898	322.105378
6.19947	3.833E-10	322.129888	0.1	0.000106489	322.129888
6.3995	3.822E-10	322.154428	0.1	0.000107076	322.154428
6.59951	4E-10	322.178954	0.0999999	0.000107659	322.178954
6.79949	4.132E-10	322.203497	0.0999997	0.000108239	322.203497
6.99948	3.961E-10	322.228025	0.1	0.000108818	322.228025
7.19948	3.923E-10	322.252548	0.1	0.000109392	322.252548
7.3995	4.263E-10	322.277057	0.1	0.00010996	322.277057
7.59949	3.467E-10	322.334418	0.0999999	0.000110518	322.334418
7.7995	4.058E-10	322.358929	0.1000002	0.000111083	322.358929
7.99948	3.924E-10	322.383439	0.0999999	0.000111643	322.383439
8.19949	3.954E-10	322.407986	0.1	0.000112199	322.407986
8.39949	5.287E-10	322.432551	0.0999998	0.000112752	322.432551
8.59948	4.37E-10	322.457145	0.0999999	0.000113299	322.457145
8.79952	4.425E-10	322.481736	0.1000001	0.000113847	322.481736
8.99949	4.256E-10	322.506257	0.1000001	0.000114386	322.506257
9.19949	4.361E-10	322.530769	0.1000001	0.000114923	322.530769
9.39949	4.488E-10	322.555299	0.1	0.000115465	322.555299
9.5995	4.402E-10	322.579833	0.1000001	0.000115999	322.579833
9.79954	4.512E-10	322.604339	0.1000003	0.000116535	322.604339
9.99948	4.528E-10	322.628854	0.0999999	0.000117066	322.628854
9.99949	3.789E-10	322.652219	0.0999999	0.000117065	322.652219
9.79949	1.381E-10	322.676731	0.0999998	0.000116535	322.676731
9.59948	2.673E-10	322.701329	0.1000001	0.000116002	322.701329
9.3995	2.13E-10	322.725856	0.0999999	0.000115469	322.725856
9.19951	1.87E-10	322.750382	0.1000001	0.000114928	322.750382
8.9995	1.838E-10	322.774918	0.0999997	0.00011439	322.774918
8.7995	1.959E-10	322.833308	0.0999996	0.000113843	322.833308
8.5995	1.52E-10	322.857855	0.0999999	0.000113287	322.857855
8.39951	1.556E-10	322.882403	0.0999999	0.000112729	322.882403
8.19951	1.145E-10	322.906894	0.0999998	0.000112169	322.906894
7.9995	9.75E-11	322.931481	0.1000001	0.000111605	322.931481
7.7995	9.54E-11	322.955995	0.1000001	0.000111037	322.955995
7.5995	8.5E-11	322.980522	0.0999999	0.000110467	322.980522
7.39951	6.21E-11	323.005017	0.0999999	0.000109891	323.005017
7.19949	4.48E-11	323.029625	0.1	0.000109317	323.029625
6.99949	5.86E-11	323.054188	0.1000001	0.000108736	323.054188
6.79949	4.24E-11	323.078715	0.1000001	0.000108153	323.078715
6.5995	1.88E-11	323.103227	0.0999999	0.000107567	323.103227
6.39949	3.06E-11	323.127752	0.1000001	0.000106977	323.127752
6.19949	1.45E-11	323.152283	0.1000002	0.000106381	323.152283
5.99949	-1.3E-12	323.176797	0.0999999	0.000105785	323.176797
5.79952	1.36E-11	323.201342	0.1000001	0.000105185	323.201342
5.59953	-6.6E-12	323.225851	0.1	0.000104582	323.225851
5.39949	-3.21E-11	323.250368	0.0999999	0.000103975	323.250368
5.19953	-1.56E-11	323.274882	0.1000002	0.000103362	323.274882
4.99952	4E-11	323.334904	0.1	0.000102748	323.334904
4.79949	-1.19E-11	323.359522	0.1	0.000102131	323.359522
4.59948	-4.06E-11	323.384075	0.0999998	0.000101512	323.384075
4.3995	-3.61E-11	323.408591	0.0999999	0.000100888	323.408591
4.19949	-4.76E-11	323.433165	0.1000001	0.000100265	323.433165
3.9995	-6.81E-11	323.457697	0.0999998	9.9636E-05	323.457697
3.79948	-6.04E-11	323.482208	0.0999995	9.9005E-05	323.482208
3.59949	-6.96E-11	323.50673	0.1	9.8376E-05	323.50673
3.39949	-8.39E-11	323.531239	0.0999999	9.7746E-05	323.531239
3.1995	-9.16E-11	323.555824	0.1	9.7116E-05	323.555824
2.99951	-6.49E-11	323.580363	0.1000001	9.6485E-05	323.580363
2.79947	-9.04E-11	323.6049	0.0999998	9.5854E-05	323.6049
2.5995	-1.182E-10	323.629396	0.1	9.5223E-05	323.629396
2.39952	-1.053E-10	323.653929	0.0999998	9.4594E-05	323.653929
2.19951	-9.47E-11	323.678444	0.1000001	9.3966E-05	323.678444
1.9995	-1.191E-10	323.703052	0.1000004	9.334E-05	323.703052
1.7995	-1.254E-10	323.727574	0.0999999	9.2715E-05	323.727574
1.59951	-1.237E-10	323.752108	0.1	9.2091E-05	323.752108
1.39954	-1.31E-10	323.776631	0.1	9.1473E-05	323.776631
1.1995	8.3E-11	323.836693	0.1	9.0858E-05	323.836693
0.99949	-8.56E-11	323.861496	0.0999999	9.0242E-05	323.861496
0.79947	-1.22E-10	323.88603	0.0999999	8.963E-05	323.88603
0.59951	-1.46E-10	323.910547	0.1	8.902E-05	323.910547
0.39952	-1.38E-10	323.935128	0.1	8.8412E-05	323.935128
0.1995	-1.286E-10	323.959701	0.1000001	8.7809E-05	323.959701
-0.00049	-1.598E-10	323.984227	0.0999999	8.7209E-05	323.984227
-0.20047	-1.372E-10	324.012071	0.1000052	8.65406E-05	324.012071
-0.40049	-1.659E-10	324.036674	0.1000049	8.59599E-05	324.036674
-0.60045	-1.611E-10	324.061223	0.1000052	8.5392E-05	324.061223
-0.80051	-2.091E-10	324.085741	0.1000047	8.48351E-05	324.085741
-1.0005	-2.078E-10	324.11025	0.1000042	8.42927E-05	324.11025
-1.20049	-1.941E-10	324.134774	0.1000046	8.37584E-05	324.134774
-1.4005	-1.755E-10	324.159302	0.1000049	8.3229E-05	324.159302
-1.60048	-2.028E-10	324.183847	0.1000049	8.2703E-05	324.183847
-1.80051	-2.088E-10	324.208401	0.1000045	8.21768E-05	324.208401
-2.00047	-2.033E-10	324.232908	0.1000052	8.16518E-05	324.232908
-2.2005	-1.983E-10	324.257431	0.1000045	8.11239E-05	324.257431
-2.40051	-2.093E-10	324.281973	0.1000047	8.05978E-05	324.281973
-2.60048	-1.403E-10	324.341025	0.100005	8.00722E-05	324.341025
-2.80049	-1.947E-10	324.365589	0.1000052	7.95432E-05	324.365589
-3.00048	-2.224E-10	324.390137	0.1000051	7.90136E-05	324.390137
-3.2005	-2.137E-10	324.414652	0.100006	7.84835E-05	324.414652
-3.4005	-2.116E-10	324.439234	0.1000057	7.79527E-05	324.439234
-3.6005	-2.215E-10	324.463764	0.1000062	7.74217E-05	324.463764
-3.80047	-2.437E-10	324.488285	0.1000053	7.68857E-05	324.488285
-4.00049	-2.316E-10	324.512818	0.1000045	7.63529E-05	324.512818
-4.20048	-2.283E-10	324.537326	0.1000055	7.58165E-05	324.537326
-4.40051	-2.41E-10	324.562006	0.1000059	7.52801E-05	324.562006
-4.60048	-2.563E-10	324.586552	0.1000053	7.4742E-05	324.586552
-4.80049	-2.511E-10	324.611098	0.100005	7.42026E-05	324.611098
-5.00049	-2.593E-10	324.635609	0.1000057	7.36614E-05	324.635609
-5.20048	-2.528E-10	324.660146	0.1000054	7.31186E-05	324.660146
-5.40048	-2.527E-10	324.684668	0.1000063	7.25743E-05	324.684668
-5.60048	-2.751E-10	324.70926	0.1000052	7.2028E-05	324.70926
-5.80051	-2.638E-10	324.733763	0.1000044	7.14802E-05	324.733763
-6.00051	-2.653E-10	324.758272	0.1000045	7.09292E-05	324.758272
-6.2005	-2.696E-10	324.782796	0.1000048	7.03794E-05	324.782796
-6.40047	-2.211E-10	324.839843	0.1000053	6.98287E-05	324.839843
-6.60049	-2.451E-10	324.864404	0.1000054	6.9274E-05	324.864404
-6.80047	-2.728E-10	324.888963	0.1000055	6.87166E-05	324.888963
-7.00051	-2.861E-10	324.913493	0.100006	6.81575E-05	324.913493
-7.20048	-2.582E-10	324.938051	0.1000063	6.75973E-05	324.938051
-7.40051	-2.768E-10	324.962577	0.1000045	6.70335E-05	324.962577
-7.6005	-2.921E-10	324.987119	0.1000055	6.64704E-05	324.987119
-7.80047	-2.839E-10	325.011629	0.1000066	6.59034E-05	325.011629
-8.00048	-2.876E-10	325.036233	0.1000061	6.53357E-05	325.036233
-8.20049	-2.886E-10	325.06082	0.1000066	6.47656E-05	325.06082
-8.40049	-3.154E-10	325.08544	0.1000057	6.41935E-05	325.08544
-8.60051	-3.159E-10	325.109957	0.1000058	6.36206E-05	325.109957
-8.80049	-3.009E-10	325.134475	0.1000047	6.30439E-05	325.134475
-9.00048	-3.118E-10	325.158985	0.1000052	6.24661E-05	325.158985
-9.20049	-3.162E-10	325.183538	0.1000054	6.18872E-05	325.183538
-9.40048	-3.211E-10	325.208083	0.1000061	6.13064E-05	325.208083
-9.60052	-2.79E-10	325.232608	0.1000064	6.07251E-05	325.232608
-9.80048	-2.765E-10	325.257121	0.1000069	6.01432E-05	325.257121
-10.00049	-3.001E-10	325.281664	0.1000057	5.9559E-05	325.281664
-10.2005	-2.597E-10	325.341449	0.100006	5.89801E-05	325.341449
-10.40048	-3.143E-10	325.366164	0.1000062	5.83918E-05	325.366164
-10.60049	-3.093E-10	325.390716	0.1000065	5.78019E-05	325.390716
-10.80046	-3.173E-10	325.415222	0.1000058	5.72097E-05	325.415222
-11.00045	-3.314E-10	325.439805	0.1000052	5.66162E-05	325.439805
-11.20049	-3.305E-10	325.464311	0.1000057	5.60207E-05	325.464311
-11.4005	-3.902E-10	325.488848	0.1000063	5.54243E-05	325.488848
-11.60048	-3.592E-10	325.513362	0.1000059	5.48252E-05	325.513362
-11.80049	-3.468E-10	325.537885	0.1000062	5.42247E-05	325.537885
-12.0005	-3.501E-10	325.562541	0.1000058	5.36226E-05	325.562541
