#scan	iMeasureCycle=1	iMux=0	time=0.038	N=222	LocalTime=22/06/2023 06:50:50
#VGate(V)	IGate(A)	time(s)	VDrain(V)	IDrain(A)	time(s)
-12.00048	-3.1591E-09	0.063882	0.1000076	6.50138E-05	0.063882
-11.80051	-3.0376E-09	0.088759	0.1000068	6.55852E-05	0.088759
-11.60052	-1.2905E-09	0.113282	0.1000063	6.61544E-05	0.113282
-11.40051	-5.144E-10	0.137796	0.100006	6.67205E-05	0.137796
-11.20048	-3.425E-10	0.162331	0.1000054	6.72848E-05	0.162331
-11.0005	-2.238E-10	0.18685	0.1000067	6.78469E-05	0.18685
-10.8005	-1.761E-10	0.211374	0.1000067	6.84068E-05	0.211374
-10.60052	-9.61E-11	0.235889	0.1000065	6.89625E-05	0.235889
-10.40048	-8.23E-11	0.260475	0.1000066	6.9519E-05	0.260475
-10.2005	-7.17E-11	0.285004	0.1000067	7.00701E-05	0.285004
-10.00048	-1.25E-11	0.309533	0.1000058	7.0622E-05	0.309533
-9.80051	-2.8E-12	0.334134	0.1000059	7.11704E-05	0.334134
-9.6005	-4.6E-12	0.358669	0.1000061	7.17174E-05	0.358669
-9.40049	4.9E-12	0.383184	0.1000059	7.22626E-05	0.383184
-9.20051	4.2E-11	0.407729	0.1000068	7.28047E-05	0.407729
-9.00048	5.12E-11	0.43225	0.1000055	7.33401E-05	0.43225
-8.8005	5.17E-11	0.456816	0.1000057	7.38757E-05	0.456816
-8.60053	6.52E-11	0.481345	0.1000063	7.44063E-05	0.481345
-8.4005	8.42E-11	0.505869	0.1000058	7.49353E-05	0.505869
-8.20049	8.38E-11	0.530395	0.1000053	7.54621E-05	0.530395
-8.0005	1.007E-10	0.554912	0.1000063	7.59882E-05	0.554912
-7.80051	1.085E-10	0.579469	0.1000054	7.65102E-05	0.579469
-7.60051	6.66E-11	0.627658	0.1000057	7.703E-05	0.627658
-7.40051	1.201E-10	0.652256	0.100005	7.75502E-05	0.652256
-7.20051	1.115E-10	0.67679	0.1000053	7.80699E-05	0.67679
-7.0005	1.197E-10	0.701302	0.1000058	7.85872E-05	0.701302
-6.8005	1.405E-10	0.725884	0.1000057	7.91028E-05	0.725884
-6.60049	1.467E-10	0.750358	0.1000053	7.96145E-05	0.750358
-6.40049	1.495E-10	0.774883	0.1000061	8.01272E-05	0.774883
-6.20048	1.479E-10	0.799409	0.1000047	8.06363E-05	0.799409
-6.0005	1.612E-10	0.82394	0.1000048	8.11431E-05	0.82394
-5.8005	1.616E-10	0.848456	0.1000049	8.16506E-05	0.848456
-5.60049	2.716E-10	0.872984	0.1000049	8.21553E-05	0.872984
-5.40051	2.081E-10	0.897486	0.1000054	8.26592E-05	0.897486
-5.20049	1.934E-10	0.922074	0.1000054	8.31614E-05	0.922074
-5.0005	1.923E-10	0.946595	0.1000063	8.36615E-05	0.946595
-4.80049	2.076E-10	0.971203	0.1000049	8.41598E-05	0.971203
-4.60051	2.121E-10	0.995725	0.1000055	8.46569E-05	0.995725
-4.40051	2.06E-10	1.020266	0.1000058	8.51549E-05	1.020266
-4.20048	2.091E-10	1.044785	0.1000054	8.56501E-05	1.044785
-4.0005	2.274E-10	1.069322	0.1000052	8.61445E-05	1.069322
-3.80051	1.665E-10	1.128969	0.1000052	8.66337E-05	1.128969
-3.60049	1.967E-10	1.153599	0.1000052	8.71262E-05	1.153599
-3.40052	2.241E-10	1.178121	0.1000051	8.76179E-05	1.178121
-3.20049	2.213E-10	1.202652	0.1000053	8.81083E-05	1.202652
-3.00047	2.27E-10	1.227219	0.1000049	8.85969E-05	1.227219
-2.80051	2.262E-10	1.251797	0.1000047	8.90855E-05	1.251797
-2.60053	2.454E-10	1.276306	0.100005	8.95724E-05	1.276306
-2.4005	2.415E-10	1.30084	0.1000047	9.00584E-05	1.30084
-2.20051	2.383E-10	1.325363	0.1000049	9.05433E-05	1.325363
-2.0005	2.613E-10	1.349887	0.1000049	9.10287E-05	1.349887
-1.80051	2.658E-10	1.374409	0.1000043	9.15134E-05	1.374409
-1.60051	2.635E-10	1.398907	0.1000046	9.20006E-05	1.398907
-1.40051	2.693E-10	1.423431	0.1000051	9.24918E-05	1.423431
-1.20049	2.752E-10	1.447963	0.1000039	9.29891E-05	1.447963
-1.00051	1.817E-10	1.472593	0.1000038	9.34953E-05	1.472593
-0.8005	2.648E-10	1.497101	0.1000043	9.40117E-05	1.497101
-0.6005	2.871E-10	1.521635	0.100004	9.45389E-05	1.521635
-0.40049	2.77E-10	1.546141	0.1000038	9.50747E-05	1.546141
-0.20053	2.829E-10	1.570674	0.1000036	9.56141E-05	1.570674
-0.00051	2.527E-10	1.63067	0.1000044	9.61559E-05	1.63067
0.19949	2.762E-10	1.655206	0.1000041	9.67069E-05	1.655206
0.39949	2.698E-10	1.679718	0.1000039	9.72617E-05	1.679718
0.59952	2.855E-10	1.704237	0.1000043	9.78169E-05	1.704237
0.79947	3.084E-10	1.728808	0.1000041	9.83726E-05	1.728808
0.99951	2.994E-10	1.753337	0.1000039	9.89306E-05	1.753337
1.19948	2.991E-10	1.777871	0.1000035	9.94912E-05	1.777871
1.39948	3.144E-10	1.802398	0.1000037	0.0001000529	1.802398
1.59949	3.186E-10	1.826917	0.1000035	0.0001006155	1.826917
1.79948	3.19E-10	1.851457	0.1000033	0.0001011814	1.851457
1.99949	3.31E-10	1.875989	0.100003	0.0001017482	1.875989
2.19949	3.381E-10	1.900507	0.1000038	0.000102315	1.900507
2.39949	3.246E-10	1.925091	0.1000037	0.0001028854	1.925091
2.59948	3.311E-10	1.949568	0.1000034	0.000103454	1.949568
2.7995	3.598E-10	1.974167	0.1000032	0.0001040252	1.974167
2.99947	3.437E-10	1.998679	0.1000032	0.0001045952	1.998679
3.1995	3.388E-10	2.028256	0.0999999	0.000105242	2.028256
3.39946	3.547E-10	2.052918	0.0999999	0.000105813	2.052918
3.59949	3.405E-10	2.077438	0.0999998	0.000106383	2.077438
3.79949	3E-10	2.134963	0.0999999	0.000106944	2.134963
3.9995	3.369E-10	2.159482	0.0999999	0.000107512	2.159482
4.19947	3.426E-10	2.184003	0.0999999	0.000108078	2.184003
4.3995	3.549E-10	2.208535	0.1	0.000108642	2.208535
4.59951	3.653E-10	2.233121	0.1	0.000109206	2.233121
4.79949	3.533E-10	2.257712	0.1	0.000109764	2.257712
4.99949	5.254E-10	2.282238	0.0999999	0.000110323	2.282238
5.19949	4.039E-10	2.306788	0.1	0.000110878	2.306788
5.39948	3.802E-10	2.331304	0.1	0.000111428	2.331304
5.59949	3.9E-10	2.355807	0.1	0.000111977	2.355807
5.79948	3.993E-10	2.380329	0.1	0.000112525	2.380329
5.99948	3.879E-10	2.40485	0.1	0.000113067	2.40485
6.19949	3.948E-10	2.429356	0.1	0.000113606	2.429356
6.39948	4.074E-10	2.453939	0.0999998	0.000114144	2.453939
6.5995	3.972E-10	2.478531	0.1	0.000114678	2.478531
6.79948	4.074E-10	2.503049	0.0999999	0.000115207	2.503049
6.99947	3.454E-10	2.527578	0.0999998	0.000115736	2.527578
7.19948	3.879E-10	2.552096	0.0999998	0.00011626	2.552096
7.39949	3.984E-10	2.576635	0.1	0.000116783	2.576635
7.59949	3.742E-10	2.634071	0.1	0.000117296	2.634071
7.7995	3.846E-10	2.658605	0.1000002	0.000117812	2.658605
7.9995	3.878E-10	2.683149	0.0999999	0.000118326	2.683149
8.19949	4.143E-10	2.707649	0.0999999	0.000118836	2.707649
8.39948	4.078E-10	2.732235	0.0999999	0.000119343	2.732235
8.59949	4.185E-10	2.756758	0.0999999	0.000119846	2.756758
8.79949	4.193E-10	2.781285	0.0999999	0.000120348	2.781285
8.99947	4.284E-10	2.805814	0.1	0.000120844	2.805814
9.1995	4.34E-10	2.830331	0.1	0.000121339	2.830331
9.39949	4.319E-10	2.854861	0.1000002	0.000121838	2.854861
9.59949	4.436E-10	2.879375	0.0999998	0.000122331	2.879375
9.79949	4.421E-10	2.903884	0.0999999	0.00012282	2.903884
9.99948	4.311E-10	2.928456	0.0999999	0.000123312	2.928456
9.99948	4.057E-10	2.951788	0.0999998	0.000123311	2.951788
9.7995	3.077E-10	2.9764	0.0999999	0.000122822	2.9764
9.59949	2.495E-10	3.000915	0.1	0.000122333	3.000915
9.3995	2.317E-10	3.025434	0.0999999	0.000121842	3.025434
9.19951	2.21E-10	3.049957	0.0999999	0.000121348	3.049957
8.99948	1.834E-10	3.074546	0.0999999	0.000120852	3.074546
8.7995	1.994E-10	3.135565	0.0999999	0.000120348	3.135565
8.59949	1.671E-10	3.160077	0.0999998	0.000119838	3.160077
8.39952	1.364E-10	3.184618	0.0999998	0.000119326	3.184618
8.1995	1.16E-10	3.209133	0.0999999	0.000118811	3.209133
7.99949	1.153E-10	3.23373	0.0999999	0.000118291	3.23373
7.7995	1.016E-10	3.258299	0.1	0.000117771	3.258299
7.59949	8.8E-11	3.282832	0.0999998	0.000117245	3.282832
7.39949	6.91E-11	3.307373	0.1000001	0.000116718	3.307373
7.19949	7.55E-11	3.331887	0.1	0.000116189	3.331887
6.99947	5.85E-11	3.356401	0.1	0.000115657	3.356401
6.7995	3.4E-11	3.380919	0.0999999	0.000115125	3.380919
6.5995	2.25E-11	3.405423	0.0999999	0.000114587	3.405423
6.39951	4.46E-11	3.429946	0.0999999	0.000114047	3.429946
6.19949	1.98E-11	3.454452	0.0999999	0.000113506	3.454452
5.99948	1.1E-12	3.479062	0.0999999	0.000112958	3.479062
5.7995	4.1E-12	3.503588	0.1	0.000112411	3.503588
5.59951	-1.02E-11	3.52811	0.1000001	0.000111859	3.52811
5.39948	-1.2E-11	3.552651	0.1	0.000111305	3.552651
5.1995	-2.01E-11	3.577181	0.1	0.000110746	3.577181
4.99947	2.63E-11	3.637445	0.0999999	0.000110191	3.637445
4.7995	-2.12E-11	3.661985	0.0999999	0.000109628	3.661985
4.59949	9.25E-11	3.686516	0.1000001	0.000109063	3.686516
4.39946	2E-12	3.711039	0.1	0.000108496	3.711039
4.19949	-3.46E-11	3.735618	0.1000001	0.000107928	3.735618
3.99949	-4.96E-11	3.760136	0.0999999	0.000107356	3.760136
3.79949	-4.46E-11	3.784652	0.1	0.000106787	3.784652
3.5995	-5.79E-11	3.809197	0.1	0.000106213	3.809197
3.39949	-7.04E-11	3.833716	0.1	0.00010564	3.833716
3.19951	-8.24E-11	3.858267	0.1000001	0.000105069	3.858267
2.9995	-7.28E-11	3.882778	0.0999998	0.000104494	3.882778
2.7995	-8.79E-11	3.907327	0.1	0.00010392	3.907327
2.59951	-9.77E-11	3.9319	0.1000002	0.000103349	3.9319
2.3995	-8.92E-11	3.956433	0.0999999	0.000102778	3.956433
2.19949	-1.028E-10	3.981037	0.1000001	0.000102207	3.981037
1.99951	-1.195E-10	4.005562	0.0999999	0.000101639	4.005562
1.7995	-1.136E-10	4.030079	0.1	0.00010107	4.030079
1.5995	-1.103E-10	4.054607	0.0999999	0.000100503	4.054607
1.3995	-1.243E-10	4.079136	0.1	9.9937E-05	4.079136
1.1995	-1.317E-10	4.134497	0.1000001	9.9378E-05	4.134497
0.99951	-1.354E-10	4.159005	0.1	9.8816E-05	4.159005
0.7995	-1.444E-10	4.183539	0.1000001	9.8256E-05	4.183539
0.5995	-1.35E-10	4.208058	0.0999999	9.7698E-05	4.208058
0.39951	-1.486E-10	4.23265	0.1000001	9.7142E-05	4.23265
0.1995	-1.724E-10	4.257224	0.1	9.6586E-05	4.257224
-0.00049	-1.467E-10	4.281764	0.0999999	9.6036E-05	4.281764
-0.20051	-1.668E-10	4.306296	0.1	9.5492E-05	4.306296
-0.4005	-1.764E-10	4.330824	0.0999999	9.4951E-05	4.330824
-0.60047	-1.698E-10	4.355338	0.1	9.4419E-05	4.355338
-0.80051	-1.776E-10	4.379866	0.0999998	9.3899E-05	4.379866
-1.00049	-1.987E-10	4.404398	0.1	9.339E-05	4.404398
-1.20051	-1.914E-10	4.42891	0.1	9.2889E-05	4.42891
-1.40052	-1.887E-10	4.453428	0.1	9.2397E-05	4.453428
-1.60049	-1.988E-10	4.478052	0.1	9.191E-05	4.478052
-1.80052	-2.07E-10	4.502583	0.0999999	9.1424E-05	4.502583
-2.00049	-2.089E-10	4.527104	0.1	9.0941E-05	4.527104
-2.2005	-1.969E-10	4.551623	0.0999998	9.0455E-05	4.551623
-2.40051	-2.216E-10	4.576147	0.1000001	8.9972E-05	4.576147
-2.6005	-1.513E-10	4.638798	0.1	8.9488E-05	4.638798
-2.80048	-2E-10	4.663406	0.1000001	8.9E-05	4.663406
-3.0005	-1.93E-10	4.687952	0.1	8.8513E-05	4.687952
-3.2005	-1.772E-10	4.715803	0.1000046	8.79473E-05	4.715803
-3.40049	-2.21E-10	4.740377	0.1000047	8.74583E-05	4.740377
-3.6005	-2.321E-10	4.764898	0.1000043	8.69685E-05	4.764898
-3.80049	-2.272E-10	4.789427	0.100005	8.64783E-05	4.789427
-4.00048	-2.235E-10	4.81397	0.1000047	8.59843E-05	4.81397
-4.20051	-2.417E-10	4.838475	0.1000048	8.54909E-05	4.838475
-4.40047	-2.526E-10	4.862984	0.1000044	8.4995E-05	4.862984
-4.60049	-2.29E-10	4.887512	0.1000052	8.44998E-05	4.887512
-4.80048	-2.459E-10	4.912018	0.1000051	8.40025E-05	4.912018
-5.00051	-2.633E-10	4.936586	0.1000051	8.35027E-05	4.936586
-5.20049	-2.451E-10	4.961117	0.1000051	8.30015E-05	4.961117
-5.40049	-2.629E-10	4.985735	0.1000053	8.24986E-05	4.985735
-5.60051	-2.639E-10	5.010265	0.100005	8.19948E-05	5.010265
-5.80049	-2.588E-10	5.034778	0.1000048	8.14889E-05	5.034778
-6.00049	-2.622E-10	5.059312	0.1000046	8.09805E-05	5.059312
-6.20049	-2.774E-10	5.083783	0.1000052	8.04717E-05	5.083783
-6.40049	-2.021E-10	5.145123	0.1000056	7.99637E-05	5.145123
-6.60049	-2.408E-10	5.169678	0.100006	7.94505E-05	5.169678
-6.80046	-2.558E-10	5.194198	0.1000055	7.89349E-05	5.194198
-7.00049	-2.624E-10	5.218737	0.1000062	7.84186E-05	5.218737
-7.20049	-2.805E-10	5.243302	0.1000062	7.78993E-05	5.243302
-7.40048	-2.709E-10	5.267867	0.1000052	7.73786E-05	5.267867
-7.6005	-2.728E-10	5.292467	0.1000054	7.68562E-05	5.292467
-7.80046	-2.919E-10	5.317001	0.1000062	7.63302E-05	5.317001
-8.00016	-5.305E-10	5.341503	0.1000058	7.58039E-05	5.341503
-8.2006	-2.796E-10	5.366025	0.1000128	7.52796E-05	5.366025
-8.40053	-3.147E-10	5.390543	0.1000099	7.47469E-05	5.390543
-8.60049	-3.06E-10	5.415061	0.1000097	7.42132E-05	5.415061
-8.80044	-3.06E-10	5.439569	0.1000088	7.36776E-05	5.439569
-9.00045	-3.23E-10	5.464068	0.1000086	7.31414E-05	5.464068
-9.20047	-2.627E-10	5.488677	0.1000091	7.26012E-05	5.488677
-9.40049	-3.564E-10	5.513197	0.1000068	7.20583E-05	5.513197
-9.60049	-3.14E-10	5.53773	0.1000072	7.15162E-05	5.53773
-9.80048	-3.269E-10	5.562236	0.1000058	7.09732E-05	5.562236
-10.0005	-3.313E-10	5.586785	0.1000066	7.04282E-05	5.586785
-10.20047	-2.838E-10	5.643782	0.100007	6.98891E-05	5.643782
-10.40051	-3.145E-10	5.668316	0.1000078	6.93402E-05	5.668316
-10.60049	-3.018E-10	5.692936	0.1000063	6.87866E-05	5.692936
-10.80049	-3.29E-10	5.717462	0.1000059	6.82311E-05	5.717462
-11.0005	-3.282E-10	5.742043	0.1000064	6.76751E-05	5.742043
-11.2005	-3.352E-10	5.766564	0.1000069	6.71166E-05	5.766564
-11.40049	-3.376E-10	5.791096	0.1000063	6.65548E-05	5.791096
-11.60049	-3.343E-10	5.815636	0.1000066	6.59909E-05	5.815636
-11.80049	-3.458E-10	5.840158	0.1000067	6.5425E-05	5.840158
-12.00049	-3.513E-10	5.86467	0.1000072	6.48579E-05	5.86467
#scan	iMeasureCycle=2	iMux=0	time=279.857	N=222	LocalTime=22/06/2023 06:55:30
#VGate(V)	IGate(A)	time(s)	VDrain(V)	IDrain(A)	time(s)
-12.00048	-1.038E-10	279.86474	0.1000064	6.48772E-05	279.86474
-11.80049	-3.01E-11	279.889622	0.1000076	6.54493E-05	279.889622
-11.60049	-1.4E-11	279.915219	0.1000063	6.6016E-05	279.915219
-11.4005	3.64E-11	279.939762	0.1000071	6.65841E-05	279.939762
-11.20048	3.87E-11	279.964269	0.1000069	6.71474E-05	279.964269
-11.0005	5.09E-11	279.988804	0.1000063	6.77089E-05	279.988804
-10.8005	6.09E-11	280.013327	0.100007	6.82689E-05	280.013327
-10.60051	7.92E-11	280.037846	0.1000063	6.88261E-05	280.037846
-10.40051	9.12E-11	280.062458	0.1000062	6.93815E-05	280.062458
-10.2005	8.11E-11	280.087183	0.1000073	6.99351E-05	280.087183
-10.00049	9.92E-11	280.111705	0.1000064	7.0485E-05	280.111705
-9.80049	1.164E-10	280.13622	0.1000062	7.10349E-05	280.13622
-9.6005	1.102E-10	280.160822	0.1000063	7.15814E-05	280.160822
-9.40049	1.068E-10	280.185414	0.1000065	7.21274E-05	280.185414
-9.2005	1.396E-10	280.209943	0.1000053	7.26689E-05	280.209943
-9.0005	1.274E-10	280.234457	0.1000061	7.32076E-05	280.234457
-8.80048	1.386E-10	280.258991	0.1000058	7.3742E-05	280.258991
-8.60051	1.474E-10	280.283507	0.1000052	7.42734E-05	280.283507
-8.40049	1.401E-10	280.308039	0.1000064	7.48047E-05	280.308039
-8.20047	1.56E-10	280.33255	0.1000056	7.53321E-05	280.33255
-8.00051	1.577E-10	280.357086	0.1000052	7.58588E-05	280.357086
-7.8005	1.71E-10	280.381606	0.1000051	7.63818E-05	280.381606
-7.60051	1.219E-10	280.427831	0.1000054	7.69035E-05	280.427831
-7.40052	1.556E-10	280.452369	0.100005	7.74249E-05	280.452369
-7.20051	1.635E-10	280.476884	0.100005	7.79457E-05	280.476884
-7.00052	1.635E-10	280.501526	0.1000052	7.84635E-05	280.501526
-6.80048	1.887E-10	280.526099	0.1000056	7.89799E-05	280.526099
-6.60051	1.854E-10	280.550672	0.1000044	7.94938E-05	280.550672
-6.4005	1.771E-10	280.575198	0.1000051	8.00061E-05	280.575198
-6.20051	2.104E-10	280.599769	0.1000048	8.05176E-05	280.599769
-6.00053	1.987E-10	280.624289	0.1000052	8.10264E-05	280.624289
-5.80051	1.812E-10	280.648806	0.100005	8.1533E-05	280.648806
-5.6005	2.025E-10	280.673313	0.1000046	8.20398E-05	280.673313
-5.40051	2.133E-10	280.697834	0.1000049	8.25428E-05	280.697834
-5.20052	2.07E-10	280.722345	0.1000054	8.30457E-05	280.722345
-5.00051	2.069E-10	280.746861	0.1000047	8.35465E-05	280.746861
-4.80049	2.245E-10	280.771359	0.1000045	8.40457E-05	280.771359
-4.60048	2.27E-10	280.795888	0.1000046	8.45444E-05	280.795888
-4.40051	2.252E-10	280.820413	0.1000047	8.50414E-05	280.820413
-4.20051	2.245E-10	280.84503	0.1000044	8.55362E-05	280.84503
-4.0005	2.292E-10	280.869574	0.1000042	8.60306E-05	280.869574
-3.8005	1.909E-10	280.929529	0.1000045	8.65218E-05	280.929529
-3.60048	2.28E-10	280.954067	0.1000049	8.70148E-05	280.954067
-3.40052	2.395E-10	280.978588	0.1000047	8.75051E-05	280.978588
-3.2005	2.437E-10	281.003181	0.100005	8.79955E-05	281.003181
-3.0005	2.323E-10	281.027752	0.1000053	8.84842E-05	281.027752
-2.80051	2.619E-10	281.052257	0.1000053	8.89731E-05	281.052257
-2.60049	2.58E-10	281.076773	0.1000053	8.94612E-05	281.076773
-2.40051	2.543E-10	281.101297	0.100004	8.99461E-05	281.101297
-2.20052	2.578E-10	281.125811	0.1000046	9.04335E-05	281.125811
-2.0005	2.689E-10	281.150334	0.1000048	9.09186E-05	281.150334
-1.80052	2.611E-10	281.174891	0.1000043	9.14044E-05	281.174891
-1.6005	2.716E-10	281.199498	0.1000044	9.18908E-05	281.199498
-1.40051	2.748E-10	281.224052	0.1000049	9.23827E-05	281.224052
-1.20051	2.745E-10	281.248568	0.1000049	9.288E-05	281.248568
-1.00052	1.524E-10	281.273082	0.1000046	9.33865E-05	281.273082
-0.80051	2.728E-10	281.297602	0.1000038	9.39026E-05	281.297602
-0.60051	2.83E-10	281.322131	0.1000033	9.4428E-05	281.322131
-0.4005	2.814E-10	281.346644	0.1000036	9.49638E-05	281.346644
-0.20051	2.718E-10	281.371201	0.1000041	9.5504E-05	281.371201
-0.00052	2.309E-10	281.431318	0.1000039	9.6047E-05	281.431318
0.19949	2.774E-10	281.455832	0.100004	9.66007E-05	281.455832
0.39949	2.792E-10	281.480354	0.1000044	9.71551E-05	281.480354
0.5995	3.007E-10	281.504876	0.1000038	9.77099E-05	281.504876
0.79949	3E-10	281.529459	0.1000039	9.82671E-05	281.529459
0.99948	2.987E-10	281.553951	0.1000043	9.88269E-05	281.553951
1.19948	3.002E-10	281.578491	0.100004	9.93882E-05	281.578491
1.39949	3.188E-10	281.603023	0.1000034	9.99495E-05	281.603023
1.5995	3.023E-10	281.627548	0.1000036	0.0001005139	281.627548
1.7995	3.128E-10	281.652059	0.1000039	0.0001010796	281.652059
1.9995	3.315E-10	281.676574	0.1000034	0.000101646	281.676574
2.1995	3.258E-10	281.70109	0.1000036	0.0001022136	281.70109
2.39947	3.275E-10	281.725621	0.1000037	0.0001027845	281.725621
2.59949	3.26E-10	281.750134	0.1000035	0.0001033546	281.750134
2.79948	3.348E-10	281.774659	0.1000031	0.0001039244	281.774659
2.9995	3.414E-10	281.799122	0.1000034	0.0001044956	281.799122
3.19949	2.941E-10	281.828707	0.0999997	0.000105146	281.828707
3.39949	3.418E-10	281.853276	0.0999999	0.000105717	281.853276
3.59949	3.349E-10	281.877842	0.0999999	0.000106287	281.877842
3.79947	2.841E-10	281.935518	0.0999998	0.000106852	281.935518
3.99949	3.193E-10	281.960068	0.0999997	0.000107424	281.960068
4.1995	3.413E-10	281.984602	0.0999999	0.000107991	281.984602
4.3995	3.432E-10	282.009142	0.0999999	0.000108555	282.009142
4.59949	3.394E-10	282.033721	0.0999998	0.000109118	282.033721
4.79949	3.562E-10	282.058325	0.1000001	0.00010968	282.058325
4.99948	3.6E-10	282.08283	0.0999999	0.00011024	282.08283
5.19948	3.544E-10	282.107358	0.1000001	0.000110796	282.107358
5.39949	3.53E-10	282.131887	0.0999999	0.000111347	282.131887
5.59949	3.776E-10	282.156476	0.1000001	0.000111896	282.156476
5.79949	3.861E-10	282.181066	0.0999999	0.000112444	282.181066
5.99948	3.627E-10	282.205662	0.0999998	0.000112988	282.205662
6.19949	3.511E-10	282.230189	0.1	0.000113529	282.230189
6.39948	3.924E-10	282.254703	0.1	0.000114068	282.254703
6.59948	3.843E-10	282.279241	0.0999999	0.000114602	282.279241
6.79948	4.655E-10	282.303758	0.0999998	0.000115133	282.303758
6.99948	4.258E-10	282.328316	0.1	0.000115662	282.328316
7.1995	3.965E-10	282.352823	0.1	0.000116188	282.352823
7.3995	4.018E-10	282.377358	0.0999999	0.000116709	282.377358
7.59947	3.236E-10	282.430127	0.1	0.000117226	282.430127
7.79949	3.918E-10	282.454648	0.0999999	0.000117743	282.454648
7.9995	3.942E-10	282.479158	0.1000002	0.000118258	282.479158
8.19947	3.848E-10	282.503669	0.0999999	0.000118768	282.503669
8.39948	3.97E-10	282.528239	0.0999999	0.000119275	282.528239
8.59949	3.999E-10	282.552746	0.1	0.000119782	282.552746
8.79949	4.057E-10	282.57736	0.0999999	0.000120282	282.57736
8.99948	4.043E-10	282.601873	0.1000001	0.00012078	282.601873
9.19947	4.074E-10	282.626404	0.1000001	0.000121275	282.626404
9.39946	4.034E-10	282.650917	0.1	0.000121775	282.650917
9.59949	3.013E-10	282.67543	0.1000002	0.000122268	282.67543
9.79949	4.119E-10	282.699935	0.0999999	0.000122761	282.699935
9.99946	4.203E-10	282.724464	0.1000001	0.000123249	282.724464
9.99946	3.404E-10	282.747827	0.1000001	0.00012325	282.747827
9.79948	2.721E-10	282.772331	0.0999999	0.000122762	282.772331
9.59949	2.403E-10	282.796843	0.1000001	0.000122271	282.796843
9.39949	1.992E-10	282.821355	0.1	0.000121779	282.821355
9.19947	1.807E-10	282.84608	0.0999999	0.000121283	282.84608
8.99948	1.662E-10	282.870626	0.1	0.000120787	282.870626
8.79951	1.923E-10	282.920065	0.1000001	0.00012028	282.920065
8.59949	1.379E-10	282.944653	0.1	0.000119772	282.944653
8.39951	1.02E-10	282.969215	0.0999998	0.000119259	282.969215
8.19951	1.073E-10	282.993716	0.1	0.000118742	282.993716
7.99951	1.068E-10	283.020088	0.0999999	0.000118224	283.020088
7.7995	8.24E-11	283.044607	0.0999998	0.000117702	283.044607
7.59948	7.21E-11	283.069214	0.0999998	0.000117179	283.069214
7.39949	4.74E-11	283.093733	0.1	0.00011665	283.093733
7.19948	4.7E-11	283.118242	0.0999999	0.000116121	283.118242
6.99947	4.71E-11	283.142762	0.1000001	0.000115589	283.142762
6.79949	2.6E-11	283.16726	0.0999999	0.000115056	283.16726
6.5995	2.53E-11	283.191834	0.1	0.00011452	283.191834
6.39948	1.79E-11	283.216448	0.1000001	0.00011398	283.216448
6.19951	2.73E-11	283.240974	0.1	0.000113436	283.240974
5.99947	-2E-12	283.265491	0.0999999	0.000112889	283.265491
5.79949	-2.55E-11	283.290014	0.1	0.000112341	283.290014
5.59947	6.7E-12	283.314539	0.1	0.000111789	283.314539
5.39949	-7.7E-12	283.339077	0.0999999	0.000111235	283.339077
5.1995	-4.16E-11	283.363593	0.1000002	0.000110677	283.363593
4.99951	-2.93E-11	283.388133	0.1	0.000110117	283.388133
4.7995	-3E-13	283.433509	0.1	0.000109556	283.433509
4.5995	-2.3E-11	283.458033	0.0999999	0.000108991	283.458033
4.39948	-4.08E-11	283.482562	0.0999999	0.000108423	283.482562
4.19949	-5.56E-11	283.507078	0.1	0.000107853	283.507078
3.9995	-4.26E-11	283.531709	0.1	0.000107284	283.531709
3.79948	-6.25E-11	283.556232	0.0999998	0.00010671	283.556232
3.5995	-6.81E-11	283.580831	0.1	0.000106137	283.580831
3.39948	-8.41E-11	283.605375	0.0999999	0.000105565	283.605375
3.19948	-8.24E-11	283.629893	0.0999999	0.000104992	283.629893
2.9995	-8.85E-11	283.654418	0.0999999	0.000104417	283.654418
2.79949	-9.77E-11	283.678929	0.0999999	0.000103841	283.678929
2.59952	-9.08E-11	283.703463	0.0999999	0.000103269	283.703463
2.3995	7.11E-11	283.727982	0.1000001	0.000102697	283.727982
2.19951	-1.051E-10	283.752506	0.0999999	0.000102124	283.752506
1.99949	-9.51E-11	283.777022	0.0999999	0.000101556	283.777022
1.79951	-1.056E-10	283.80156	0.1000001	0.000100987	283.80156
1.5995	-1.229E-10	283.826085	0.1000001	0.000100419	283.826085
1.39951	-1.278E-10	283.850626	0.1	9.9854E-05	283.850626
1.1995	-1.149E-10	283.8754	0.1000001	9.9291E-05	283.8754
0.99951	-5.82E-11	283.93743	0.1000002	9.8734E-05	283.93743
0.79949	-1.155E-10	283.962016	0.1000001	9.8173E-05	283.962016
0.59953	-1.312E-10	283.986528	0.1	9.7615E-05	283.986528
0.3995	-1.38E-10	284.011072	0.0999998	9.7056E-05	284.011072
0.1995	-1.393E-10	284.035644	0.1	9.6504E-05	284.035644
-0.00052	-1.483E-10	284.060128	0.1000001	9.5954E-05	284.060128
-0.2005	-2.591E-10	284.084649	0.1	9.5406E-05	284.084649
-0.4005	-1.93E-10	284.109192	0.0999999	9.4867E-05	284.109192
-0.6005	-1.772E-10	284.133715	0.0999999	9.4334E-05	284.133715
-0.80051	-1.862E-10	284.158327	0.0999997	9.3812E-05	284.158327
-1.0005	-1.633E-10	284.182922	0.1	9.3303E-05	284.182922
-1.2005	-1.891E-10	284.207463	0.0999999	9.2805E-05	284.207463
-1.40051	-2.096E-10	284.232011	0.1000001	9.2314E-05	284.232011
-1.6005	-1.866E-10	284.256528	0.1	9.1826E-05	284.256528
-1.8005	-1.897E-10	284.281144	0.0999999	9.134E-05	284.281144
-2.00051	-2.043E-10	284.305656	0.1000001	9.0857E-05	284.305656
-2.20049	-2.19E-10	284.330189	0.1	9.0373E-05	284.330189
-2.4005	-2.02E-10	284.354711	0.0999999	8.9888E-05	284.354711
-2.60047	-2.079E-10	284.379279	0.1000001	8.9403E-05	284.379279
-2.8005	-1.419E-10	284.436751	0.0999999	8.892E-05	284.436751
-3.0005	-1.909E-10	284.4613	0.0999998	8.8431E-05	284.4613
-3.2005	-2.163E-10	284.485843	0.1	8.7942E-05	284.485843
-3.40051	-2.141E-10	284.510382	0.1000001	8.7452E-05	284.510382
-3.60049	-1.97E-10	284.538266	0.1000047	8.68825E-05	284.538266
-3.8005	-2.176E-10	284.562766	0.1000048	8.63906E-05	284.562766
-4.00052	-2.27E-10	284.587296	0.100005	8.58983E-05	284.587296
-4.20049	-2.484E-10	284.611825	0.1000043	8.5404E-05	284.611825
-4.40051	-2.138E-10	284.636358	0.1000046	8.49093E-05	284.636358
-4.60051	-2.285E-10	284.660878	0.1000052	8.44127E-05	284.660878
-4.80047	-2.55E-10	284.685414	0.1000048	8.3913E-05	284.685414
-5.0005	-2.558E-10	284.709929	0.1000047	8.34149E-05	284.709929
-5.20048	-2.384E-10	284.734464	0.1000052	8.29147E-05	284.734464
-5.4005	-2.529E-10	284.758978	0.1000044	8.24105E-05	284.758978
-5.60047	-2.597E-10	284.783502	0.100005	8.19068E-05	284.783502
-5.8005	-2.586E-10	284.808012	0.1000048	8.14007E-05	284.808012
-6.00051	-2.616E-10	284.832535	0.1000048	8.08926E-05	284.832535
-6.2005	-2.706E-10	284.857102	0.1000054	8.03835E-05	284.857102
-6.40049	-2.685E-10	284.881647	0.1000052	7.98726E-05	284.881647
-6.6005	-2.223E-10	284.9453	0.1000055	7.93615E-05	284.9453
-6.8005	-2.377E-10	284.969835	0.1000053	7.8846E-05	284.969835
-7.00048	-2.57E-10	284.994375	0.1000053	7.83282E-05	284.994375
-7.2005	-2.704E-10	285.018906	0.1000055	7.78092E-05	285.018906
-7.4005	-2.622E-10	285.043469	0.1000049	7.72869E-05	285.043469
-7.60048	-2.741E-10	285.068087	0.100006	7.67664E-05	285.068087
-7.80047	-2.856E-10	285.092597	0.1000055	7.62405E-05	285.092597
-8.00049	-2.82E-10	285.117143	0.100005	7.57122E-05	285.117143
-8.2005	-2.154E-10	285.141664	0.1000059	7.51833E-05	285.141664
-8.4005	-2.72E-10	285.166206	0.1000056	7.46527E-05	285.166206
-8.60049	-3.006E-10	285.190779	0.1000067	7.41202E-05	285.190779
-8.80049	-2.846E-10	285.215296	0.100007	7.35849E-05	285.215296
-9.0005	-2.782E-10	285.239811	0.1000064	7.30467E-05	285.239811
-9.20049	-3.039E-10	285.264335	0.100006	7.25086E-05	285.264335
-9.40048	-3.101E-10	285.288846	0.100007	7.19657E-05	285.288846
-9.60051	-2.95E-10	285.313363	0.1000069	7.14232E-05	285.313363
-9.80047	-3.145E-10	285.337892	0.1000057	7.08807E-05	285.337892
-10.0005	-3.147E-10	285.362413	0.1000061	7.0335E-05	285.362413
-10.20048	-3.113E-10	285.386942	0.1000065	6.97895E-05	285.386942
-10.4005	-2.673E-10	285.444268	0.1000061	6.92453E-05	285.444268
-10.60047	-2.952E-10	285.468792	0.1000064	6.86925E-05	285.468792
-10.8005	-3.163E-10	285.493326	0.1000064	6.81375E-05	285.493326
-11.00049	-3.592E-10	285.517842	0.1000061	6.75797E-05	285.517842
-11.2005	-3.375E-10	285.542524	0.100006	6.70204E-05	285.542524
-11.40049	-3.135E-10	285.56713	0.1000066	6.64589E-05	285.56713
-11.6005	-3.41E-10	285.591662	0.1000062	6.58945E-05	285.591662
-11.8005	-3.418E-10	285.616176	0.1000067	6.53296E-05	285.616176
-12.00048	-3.201E-10	285.640762	0.1000065	6.47619E-05	285.640762
#scan	iMeasureCycle=3	iMux=0	time=319.908	N=222	LocalTime=22/06/2023 06:56:10
#VGate(V)	IGate(A)	time(s)	VDrain(V)	IDrain(A)	time(s)
-12.00048	-8.85E-11	319.915548	0.1000072	6.48905E-05	319.915548
-11.80049	-1.92E-11	319.940461	0.1000068	6.54602E-05	319.940461
-11.60051	-6.6E-12	319.966142	0.1000069	6.60295E-05	319.966142
-11.40051	7.6E-12	319.990668	0.1000058	6.65949E-05	319.990668
-11.20052	2.74E-11	320.015183	0.1000067	6.71591E-05	320.015183
-11.00048	5.49E-11	320.03971	0.1000067	6.77211E-05	320.03971
-10.80049	5.85E-11	320.064243	0.1000068	6.82813E-05	320.064243
-10.6005	5.54E-11	320.088768	0.1000071	6.88393E-05	320.088768
-10.4005	6.45E-11	320.113286	0.1000064	6.93928E-05	320.113286
-10.2005	9.87E-11	320.137883	0.1000066	6.99461E-05	320.137883
-10.00051	8.91E-11	320.162513	0.1000064	7.04972E-05	320.162513
-9.80049	8.76E-11	320.187038	0.100006	7.10473E-05	320.187038
-9.6005	1.123E-10	320.211566	0.1000062	7.15933E-05	320.211566
-9.40048	1.188E-10	320.236086	0.1000063	7.21398E-05	320.236086
-9.20051	1.084E-10	320.260685	0.1000056	7.26818E-05	320.260685
-9.00048	1.219E-10	320.285286	0.100006	7.32185E-05	320.285286
-8.8005	1.312E-10	320.30981	0.1000058	7.37544E-05	320.30981
-8.60051	1.295E-10	320.334332	0.1000055	7.4286E-05	320.334332
-8.4005	1.326E-10	320.358858	0.1000058	7.48153E-05	320.358858
-8.2005	1.44E-10	320.383371	0.1000066	7.53443E-05	320.383371
-8.00051	2.672E-10	320.407897	0.1000061	7.58704E-05	320.407897
-7.80049	1.704E-10	320.432438	0.1000065	7.63948E-05	320.432438
-7.60051	1.32E-10	320.475094	0.1000064	7.69166E-05	320.475094
-7.40049	1.773E-10	320.499622	0.1000061	7.74377E-05	320.499622
-7.20051	1.607E-10	320.524148	0.1000059	7.79579E-05	320.524148
-7.00047	1.648E-10	320.548664	0.1000064	7.84762E-05	320.548664
-6.8005	1.791E-10	320.573238	0.1000055	7.89912E-05	320.573238
-6.60051	1.919E-10	320.597812	0.1000055	7.95057E-05	320.597812
-6.40047	1.901E-10	320.622464	0.1000061	8.00182E-05	320.622464
-6.2005	7.58E-11	320.646986	0.1000054	8.05276E-05	320.646986
-6.00052	1.868E-10	320.671496	0.1000052	8.10358E-05	320.671496
-5.8005	1.91E-10	320.696028	0.1000055	8.15444E-05	320.696028
-5.6005	1.866E-10	320.720537	0.1000055	8.20497E-05	320.720537
-5.4005	2.094E-10	320.745073	0.1000052	8.25529E-05	320.745073
-5.2005	1.992E-10	320.769582	0.1000052	8.30557E-05	320.769582
-5.0005	1.972E-10	320.794129	0.1000057	8.35559E-05	320.794129
-4.80048	2.218E-10	320.818636	0.1000044	8.40552E-05	320.818636
-4.60051	2.272E-10	320.843169	0.1000052	8.45531E-05	320.843169
-4.4005	2.117E-10	320.867686	0.1000049	8.50493E-05	320.867686
-4.20049	2.132E-10	320.892306	0.1000048	8.55454E-05	320.892306
-4.00053	2.333E-10	320.916867	0.1000043	8.60375E-05	320.916867
-3.8005	1.688E-10	320.965522	0.1000049	8.65291E-05	320.965522
-3.60049	2.128E-10	320.990116	0.1000049	8.70215E-05	320.990116
-3.4005	2.448E-10	321.014693	0.1000049	8.75134E-05	321.014693
-3.20051	2.364E-10	321.039218	0.1000042	8.80013E-05	321.039218
-3.00051	2.131E-10	321.065564	0.1000047	8.84906E-05	321.065564
-2.80051	2.346E-10	321.090099	0.100005	8.89787E-05	321.090099
-2.60051	2.554E-10	321.11462	0.1000047	8.94662E-05	321.11462
-2.40051	2.654E-10	321.139228	0.1000043	8.99508E-05	321.139228
-2.20052	2.457E-10	321.163768	0.100005	9.04377E-05	321.163768
-2.00052	2.553E-10	321.188289	0.1000049	9.09221E-05	321.188289
-1.80051	2.753E-10	321.212826	0.1000047	9.14083E-05	321.212826
-1.60052	2.69E-10	321.237363	0.1000044	9.18956E-05	321.237363
-1.40053	2.676E-10	321.26194	0.100005	9.2385E-05	321.26194
-1.20051	2.844E-10	321.286489	0.1000041	9.28823E-05	321.286489
-1.00052	2.787E-10	321.311007	0.1000043	9.33877E-05	321.311007
-0.80051	2.771E-10	321.335536	0.1000041	9.39028E-05	321.335536
-0.60049	3.13E-10	321.35999	0.1000042	9.44298E-05	321.35999
-0.40051	2.855E-10	321.384526	0.1000044	9.49648E-05	321.384526
-0.2005	2.872E-10	321.409086	0.1000042	9.55065E-05	321.409086
-0.00051	2.976E-10	321.433609	0.1000043	9.60518E-05	321.433609
0.19949	2.77E-10	321.478146	0.1000043	9.66017E-05	321.478146
0.3995	2.957E-10	321.502676	0.1000041	9.71569E-05	321.502676
0.59952	2.835E-10	321.527194	0.1000038	9.77123E-05	321.527194
0.79949	3.076E-10	321.551702	0.1000041	9.827E-05	321.551702
0.99951	3.171E-10	321.576271	0.1000034	9.88278E-05	321.576271
1.19948	3.098E-10	321.600848	0.1000032	9.93899E-05	321.600848
1.3995	3.067E-10	321.625473	0.1000038	9.99518E-05	321.625473
1.59951	3.107E-10	321.64999	0.1000035	0.0001005149	321.64999
1.79948	3.327E-10	321.674503	0.1000038	0.0001010812	321.674503
1.9995	3.216E-10	321.699039	0.1000036	0.0001016477	321.699039
2.1995	3.172E-10	321.723555	0.1000035	0.0001022166	321.723555
2.39949	3.416E-10	321.748079	0.1000042	0.0001027865	321.748079
2.5995	3.296E-10	321.772589	0.1000029	0.0001033567	321.772589
2.79948	3.261E-10	321.797135	0.1000038	0.0001039284	321.797135
2.9995	5.543E-10	321.821648	0.1000042	0.0001044982	321.821648
3.19949	3.16E-10	321.851217	0.0999998	0.000105146	321.851217
3.39949	3.621E-10	321.875807	0.0999998	0.000105718	321.875807
3.5995	3.657E-10	321.900378	0.0999998	0.000106287	321.900378
3.79948	3.461E-10	321.924948	0.0999999	0.000106857	321.924948
3.99949	2.884E-10	321.986854	0.0999999	0.000107418	321.986854
4.19949	3.425E-10	322.011402	0.1	0.000107987	322.011402
4.39949	3.437E-10	322.035928	0.0999998	0.000108553	322.035928
4.59948	4.4E-11	322.060453	0.1000001	0.00010912	322.060453
4.79949	3.395E-10	322.085024	0.1000001	0.000109683	322.085024
4.99949	3.487E-10	322.109564	0.0999999	0.00011024	322.109564
5.19949	3.512E-10	322.134152	0.0999999	0.000110796	322.134152
5.39948	3.617E-10	322.158687	0.0999999	0.000111347	322.158687
5.5995	3.708E-10	322.183267	0.1	0.000111898	322.183267
5.7995	3.647E-10	322.20779	0.1000001	0.000112445	322.20779
5.99948	3.644E-10	322.232306	0.0999999	0.000112991	322.232306
6.19947	3.744E-10	322.256827	0.1	0.000113532	322.256827
6.39949	3.933E-10	322.281349	0.0999999	0.00011407	322.281349
6.5995	3.765E-10	322.305887	0.0999999	0.000114606	322.305887
6.79949	3.801E-10	322.330413	0.0999997	0.000115137	322.330413
6.99947	3.934E-10	322.354932	0.1	0.000115665	322.354932
7.19949	3.868E-10	322.379438	0.1000003	0.000116192	322.379438
7.39948	3.829E-10	322.403954	0.1	0.000116714	322.403954
7.59947	3.929E-10	322.428468	0.1000001	0.000117234	322.428468
7.79949	3.295E-10	322.485675	0.1	0.000117747	322.485675
7.99947	3.725E-10	322.510257	0.0999999	0.000118259	322.510257
8.19949	3.994E-10	322.534785	0.1	0.00011877	322.534785
8.39948	3.993E-10	322.55929	0.0999999	0.000119277	322.55929
8.59949	3.891E-10	322.583883	0.1000001	0.000119782	322.583883
8.7995	4.074E-10	322.608396	0.1	0.000120283	322.608396
8.9995	4.044E-10	322.633013	0.1000001	0.00012078	322.633013
9.1995	3.967E-10	322.657516	0.0999999	0.000121278	322.657516
9.39949	4.142E-10	322.682048	0.0999999	0.000121774	322.682048
9.59949	4.152E-10	322.706569	0.1000001	0.00012227	322.706569
9.79949	4.115E-10	322.731092	0.1	0.000122763	322.731092
9.99947	4.087E-10	322.755592	0.0999999	0.000123252	322.755592
9.99948	3.687E-10	322.778946	0.1	0.000123253	322.778946
9.79951	2.733E-10	322.803457	0.0999999	0.000122764	322.803457
9.5995	2.299E-10	322.827993	0.0999999	0.000122272	322.827993
9.39949	2.169E-10	322.852514	0.0999999	0.000121782	322.852514
9.19948	1.877E-10	322.877034	0.1	0.000121286	322.877034
8.99951	1.577E-10	322.901543	0.0999999	0.000120791	322.901543
8.79951	1.506E-10	322.926071	0.1000001	0.000120289	322.926071
8.5995	1.697E-10	322.982583	0.1	0.000119775	322.982583
8.3995	1.35E-10	323.007111	0.1000001	0.000119263	323.007111
8.19951	1.099E-10	323.031629	0.0999998	0.000118746	323.031629
7.9995	8.12E-11	323.056145	0.0999999	0.000118226	323.056145
7.79949	7.96E-11	323.080721	0.0999999	0.000117704	323.080721
7.5995	7.6E-11	323.105254	0.0999999	0.00011718	323.105254
7.39949	5.29E-11	323.129941	0.1	0.000116654	323.129941
7.1995	3.89E-11	323.154462	0.1000001	0.000116126	323.154462
6.99948	4.89E-11	323.178979	0.0999999	0.000115593	323.178979
6.79948	3.69E-11	323.203597	0.0999999	0.000115059	323.203597
6.59949	1.212E-10	323.228114	0.1	0.000114521	323.228114
6.39948	3.3E-11	323.252658	0.1000001	0.000113981	323.252658
6.19949	3.03E-11	323.277228	0.1000001	0.000113437	323.277228
5.9995	9.2E-12	323.301828	0.0999999	0.00011289	323.301828
5.7995	6E-13	323.326355	0.1	0.000112342	323.326355
5.59949	-7.3E-12	323.350876	0.1000001	0.00011179	323.350876
5.39949	-1.52E-11	323.375396	0.1000001	0.000111234	323.375396
5.19951	-1.99E-11	323.39991	0.1	0.000110676	323.39991
4.9995	-3.33E-11	323.424441	0.1	0.000110117	323.424441
4.79947	-2.92E-11	323.473079	0.1000001	0.000109552	323.473079
4.59952	-4.37E-11	323.497673	0.0999999	0.000108989	323.497673
4.39947	-4.06E-11	323.522298	0.0999999	0.00010842	323.522298
4.1995	-5.67E-11	323.546826	0.0999999	0.000107851	323.546826
3.99949	-5.12E-11	323.573017	0.1	0.000107279	323.573017
3.7995	-6.47E-11	323.597583	0.1000002	0.000106707	323.597583
3.59952	-6.89E-11	323.622238	0.1	0.000106134	323.622238
3.39948	-8.33E-11	323.646858	0.1000002	0.000105559	323.646858
3.19948	-9.24E-11	323.671378	0.1000001	0.000104987	323.671378
2.99949	-8.76E-11	323.695907	0.1	0.000104413	323.695907
2.7995	-9.42E-11	323.720384	0.0999998	0.000103839	323.720384
2.59951	-1.036E-10	323.744877	0.1	0.000103265	323.744877
2.3995	-1.238E-10	323.769341	0.1	0.000102693	323.769341
2.19949	-9.43E-11	323.793857	0.0999999	0.00010212	323.793857
1.9995	-1.094E-10	323.818375	0.1	0.00010155	323.818375
1.79947	-1.325E-10	323.842909	0.0999999	0.00010098	323.842909
1.5995	-1.239E-10	323.867425	0.1000001	0.000100413	323.867425
1.3995	-1.258E-10	323.891941	0.0999998	9.985E-05	323.891941
1.1995	-1.409E-10	323.916468	0.1	9.9285E-05	323.916468
0.99951	-1.362E-10	323.94105	0.1000001	9.8724E-05	323.94105
0.79948	-9.43E-11	323.990799	0.0999999	9.8166E-05	323.990799
0.5995	-1.36E-10	324.015343	0.1	9.7606E-05	324.015343
0.39951	-1.401E-10	324.039874	0.1000003	9.705E-05	324.039874
0.19949	-1.317E-10	324.064411	0.0999998	9.6494E-05	324.064411
-0.00049	-1.639E-10	324.088961	0.0999999	9.5944E-05	324.088961
-0.20052	-1.72E-10	324.113577	0.1	9.5398E-05	324.113577
-0.40051	-1.473E-10	324.138184	0.1000003	9.4859E-05	324.138184
-0.60049	-1.644E-10	324.16272	0.0999998	9.4326E-05	324.16272
-0.80051	-1.776E-10	324.187291	0.1	9.3805E-05	324.187291
-1.0005	-1.776E-10	324.21182	0.1	9.3297E-05	324.21182
-1.20051	-1.774E-10	324.236352	0.0999999	9.2797E-05	324.236352
-1.4005	-1.759E-10	324.261133	0.1000002	9.2305E-05	324.261133
-1.6005	-2.008E-10	324.285764	0.0999999	9.1817E-05	324.285764
-1.80052	-1.902E-10	324.310282	0.1	9.1334E-05	324.310282
-2.0005	-1.913E-10	324.334816	0.1	9.0847E-05	324.334816
-2.20051	-2.084E-10	324.359323	0.1000001	9.0364E-05	324.359323
-2.4005	-2.1E-10	324.38385	0.1	8.9879E-05	324.38385
-2.60051	-2.065E-10	324.408359	0.1	8.9395E-05	324.408359
-2.80049	-2.234E-10	324.432887	0.0999999	8.8908E-05	324.432887
-3.00048	-1.582E-10	324.492408	0.0999998	8.8423E-05	324.492408
-3.20049	-1.804E-10	324.520627	0.1000051	8.78543E-05	324.520627
-3.40047	-1.904E-10	324.54517	0.1000045	8.73657E-05	324.54517
-3.60048	-2.199E-10	324.569678	0.1000047	8.68766E-05	324.569678
-3.8005	-2.214E-10	324.594254	0.1000042	8.63839E-05	324.594254
-4.0005	-2.174E-10	324.618927	0.1000056	8.58924E-05	324.618927
-4.20049	-1.055E-10	324.643532	0.1000047	8.53971E-05	324.643532
-4.40049	-2.201E-10	324.668064	0.1000053	8.49028E-05	324.668064
-4.60048	-2.342E-10	324.692574	0.1000053	8.44058E-05	324.692574
-4.80049	-2.204E-10	324.717117	0.1000055	8.39084E-05	324.717117
-5.00049	-2.339E-10	324.741634	0.1000054	8.34085E-05	324.741634
-5.20049	-2.492E-10	324.766156	0.1000054	8.2907E-05	324.766156
-5.40048	-2.4E-10	324.790671	0.1000056	8.24049E-05	324.790671
-5.60049	-2.366E-10	324.815189	0.1000049	8.18993E-05	324.815189
-5.80047	-2.568E-10	324.839717	0.1000058	8.13947E-05	324.839717
-6.00049	-3.542E-10	324.864237	0.1000057	8.08857E-05	324.864237
-6.20049	-2.746E-10	324.888755	0.1000056	8.03764E-05	324.888755
-6.40049	-2.738E-10	324.913298	0.100005	7.98658E-05	324.913298
-6.6005	-2.746E-10	324.937856	0.1000051	7.93505E-05	324.937856
-6.80049	-1.977E-10	324.99691	0.1000054	7.88384E-05	324.99691
-7.00052	-2.512E-10	325.02145	0.1000048	7.83213E-05	325.02145
-7.2005	-2.765E-10	325.045992	0.1000054	7.78019E-05	325.045992
-7.40049	-2.621E-10	325.070514	0.1000056	7.72797E-05	325.070514
-7.60049	-2.692E-10	325.095087	0.1000054	7.67564E-05	325.095087
-7.80049	-2.757E-10	325.119615	0.1000053	7.62322E-05	325.119615
-8.0005	-2.861E-10	325.144202	0.1000053	7.57044E-05	325.144202
-8.20048	-2.819E-10	325.168755	0.1000055	7.51756E-05	325.168755
-8.4005	-2.852E-10	325.193264	0.1000064	7.46449E-05	325.193264
-8.6005	-2.922E-10	325.217801	0.1000056	7.41111E-05	325.217801
-8.80047	-2.865E-10	325.242324	0.1000063	7.35759E-05	325.242324
-9.0005	-2.894E-10	325.266859	0.1000067	7.30376E-05	325.266859
-9.20049	-3.053E-10	325.291378	0.1000062	7.24996E-05	325.291378
-9.4005	-2.972E-10	325.315894	0.1000055	7.19565E-05	325.315894
-9.6005	-2.879E-10	325.340497	0.1000056	7.14121E-05	325.340497
-9.80049	-3.121E-10	325.365004	0.1000063	7.08706E-05	325.365004
-10.0005	-3.115E-10	325.389514	0.1000061	7.03249E-05	325.389514
-10.20049	-3.079E-10	325.414031	0.1000066	6.9779E-05	325.414031
-10.4005	-3.109E-10	325.438659	0.1000073	6.92303E-05	325.438659
-10.6005	-2.535E-10	325.49581	0.100006	6.86835E-05	325.49581
-10.80049	-2.833E-10	325.520333	0.100006	6.81283E-05	325.520333
-11.00048	-3.077E-10	325.544863	0.1000071	6.75722E-05	325.544863
-11.2005	-3.142E-10	325.569379	0.1000063	6.70108E-05	325.569379
-11.4005	-2.97E-10	325.593966	0.100007	6.64497E-05	325.593966
-11.6005	-3.187E-10	325.618531	0.1000068	6.58854E-05	325.618531
-11.8005	-3.326E-10	325.643112	0.1000074	6.53203E-05	325.643112
-12.0005	-3.163E-10	325.66762	0.1000067	6.47512E-05	325.66762
