#scan	iMeasureCycle=1	iMux=0	time=0.037	N=222	LocalTime=22/06/2023 04:44:50
#VGate(V)	IGate(A)	time(s)	VDrain(V)	IDrain(A)	time(s)
-12.00014	-3.214E-09	0.050011	0.1000052	6.1006E-05	0.050011
-11.80047	-3.0442E-09	0.08809	0.1000064	6.15246E-05	0.08809
-11.60049	-1.2233E-09	0.11261	0.100006	6.21093E-05	0.11261
-11.40049	-5.247E-10	0.13713	0.1000068	6.26908E-05	0.13713
-11.2005	-3.514E-10	0.161642	0.1000057	6.32692E-05	0.161642
-11.00047	-2.034E-10	0.186221	0.1000061	6.3846E-05	0.186221
-10.80048	-1.644E-10	0.210762	0.1000061	6.442E-05	0.210762
-10.60049	-9.62E-11	0.235279	0.1000061	6.49928E-05	0.235279
-10.40049	-6.54E-11	0.259792	0.1000049	6.55618E-05	0.259792
-10.20051	-5.17E-11	0.284314	0.1000056	6.61281E-05	0.284314
-10.0005	-2.72E-11	0.308846	0.1000046	6.66947E-05	0.308846
-9.80048	-4.1E-12	0.333406	0.1000063	6.72595E-05	0.333406
-9.60049	2.74E-11	0.357956	0.100006	6.78211E-05	0.357956
-9.40048	2.75E-11	0.382485	0.1000065	6.83812E-05	0.382485
-9.2005	3.43E-11	0.407022	0.100005	6.89393E-05	0.407022
-9.00051	6.51E-11	0.431541	0.1000068	6.94917E-05	0.431541
-8.80046	6.81E-11	0.456065	0.1000061	7.00419E-05	0.456065
-8.60047	6.65E-11	0.480588	0.1000057	7.0587E-05	0.480588
-8.40051	8.77E-11	0.505113	0.1000051	7.11326E-05	0.505113
-8.20049	9.44E-11	0.529681	0.1000063	7.16765E-05	0.529681
-8.00047	1.033E-10	0.554223	0.1000056	7.2217E-05	0.554223
-7.80049	5.49E-11	0.613829	0.1000051	7.27496E-05	0.613829
-7.60051	1.108E-10	0.638367	0.100005	7.32906E-05	0.638367
-7.4005	1.108E-10	0.662884	0.1000054	7.38266E-05	0.662884
-7.20048	1.019E-10	0.687402	0.1000055	7.43606E-05	0.687402
-7.00048	1.957E-10	0.712052	0.1000061	7.4894E-05	0.712052
-6.80047	1.553E-10	0.736581	0.1000051	7.54246E-05	0.736581
-6.60049	1.471E-10	0.761092	0.1000052	7.59535E-05	0.761092
-6.40049	1.623E-10	0.785607	0.1000048	7.64794E-05	0.785607
-6.2005	1.739E-10	0.810124	0.1000057	7.70056E-05	0.810124
-6.00049	1.709E-10	0.834693	0.1000063	7.753E-05	0.834693
-5.80049	1.759E-10	0.859251	0.1000054	7.80517E-05	0.859251
-5.60048	1.886E-10	0.883816	0.100006	7.85714E-05	0.883816
-5.40051	1.942E-10	0.908342	0.1000064	7.90906E-05	0.908342
-5.20047	1.925E-10	0.93287	0.1000051	7.96072E-05	0.93287
-5.0005	2.056E-10	0.957399	0.1000046	8.0122E-05	0.957399
-4.80047	2.123E-10	0.981915	0.1000055	8.06374E-05	0.981915
-4.60049	2.073E-10	1.006441	0.1000047	8.11491E-05	1.006441
-4.40049	2.166E-10	1.030961	0.1000056	8.16607E-05	1.030961
-4.20049	2.288E-10	1.055483	0.1000062	8.21714E-05	1.055483
-4.00049	1.797E-10	1.115425	0.1000052	8.26754E-05	1.115425
-3.80048	1.968E-10	1.139983	0.1000052	8.31842E-05	1.139983
-3.60049	2.76E-11	1.164503	0.1000046	8.36918E-05	1.164503
-3.40049	1.973E-10	1.189081	0.1000048	8.41984E-05	1.189081
-3.20049	2.082E-10	1.213654	0.1000049	8.47045E-05	1.213654
-3.00049	2.325E-10	1.23818	0.1000045	8.5209E-05	1.23818
-2.80051	2.414E-10	1.262696	0.1000053	8.57135E-05	1.262696
-2.60049	2.223E-10	1.287212	0.1000057	8.62147E-05	1.287212
-2.40051	2.41E-10	1.311721	0.1000052	8.67181E-05	1.311721
-2.2005	2.621E-10	1.336283	0.1000038	8.72179E-05	1.336283
-2.00051	2.576E-10	1.360823	0.1000049	8.77177E-05	1.360823
-1.80052	2.588E-10	1.385337	0.1000044	8.82179E-05	1.385337
-1.6005	2.614E-10	1.409862	0.1000038	8.87178E-05	1.409862
-1.40052	2.77E-10	1.434385	0.1000044	8.92229E-05	1.434385
-1.2005	2.725E-10	1.458915	0.1000039	8.97325E-05	1.458915
-1.0005	2.645E-10	1.483436	0.1000044	9.02518E-05	1.483436
-0.80052	2.931E-10	1.507995	0.1000042	9.07824E-05	1.507995
-0.60049	2.884E-10	1.532517	0.1000053	9.13224E-05	1.532517
-0.4005	2.791E-10	1.557043	0.1000051	9.18713E-05	1.557043
-0.20052	2.378E-10	1.616948	0.1000044	9.24214E-05	1.616948
-0.00051	2.811E-10	1.641481	0.100004	9.29882E-05	1.641481
0.1995	2.77E-10	1.665984	0.1000045	9.35574E-05	1.665984
0.39949	2.852E-10	1.69051	0.1000046	9.41284E-05	1.69051
0.5995	3.121E-10	1.715086	0.1000037	9.47016E-05	1.715086
0.79949	2.917E-10	1.739607	0.1000049	9.52777E-05	1.739607
0.99948	3.028E-10	1.764119	0.1000042	9.58549E-05	1.764119
1.1995	3.23E-10	1.788624	0.1000033	9.64329E-05	1.788624
1.39951	3.154E-10	1.813141	0.1000038	9.70136E-05	1.813141
1.59954	3.177E-10	1.837794	0.1000041	9.75967E-05	1.837794
1.79947	3.208E-10	1.86237	0.1000041	9.8179E-05	1.86237
1.99949	3.251E-10	1.886889	0.1000036	9.87657E-05	1.886889
2.19949	3.37E-10	1.91148	0.1000039	9.93538E-05	1.91148
2.39949	3.337E-10	1.936002	0.100004	9.99434E-05	1.936002
2.5995	3.558E-10	1.96052	0.1000033	0.0001005315	1.96052
2.79948	3.404E-10	1.985036	0.1000037	0.0001011218	1.985036
2.99951	3.356E-10	2.009571	0.1000045	0.0001017128	2.009571
3.19948	3.605E-10	2.034172	0.1000042	0.0001023027	2.034172
3.3995	3.607E-10	2.058721	0.1000036	0.0001028931	2.058721
3.5995	4.283E-10	2.118468	0.1000038	0.000103477	2.118468
3.7995	3.426E-10	2.143003	0.1000043	0.0001040681	2.143003
3.9995	3.652E-10	2.167519	0.1000038	0.0001046553	2.167519
4.19948	3.358E-10	2.19724	0.0999998	0.000105319	2.19724
4.3995	3.612E-10	2.221827	0.1000001	0.000105902	2.221827
4.59951	3.543E-10	2.246343	0.1000001	0.000106484	2.246343
4.79947	3.066E-10	2.270864	0.1	0.000107066	2.270864
4.99948	3.78E-10	2.295371	0.1	0.000107642	2.295371
5.1995	3.641E-10	2.319961	0.1000002	0.000108215	2.319961
5.39947	3.555E-10	2.34448	0.1	0.000108785	2.34448
5.59952	3.815E-10	2.36903	0.0999998	0.000109353	2.36903
5.79949	3.81E-10	2.39354	0.1	0.000109915	2.39354
5.99949	3.722E-10	2.418069	0.0999999	0.000110478	2.418069
6.1995	3.826E-10	2.442552	0.1000001	0.000111035	2.442552
6.39948	3.958E-10	2.46707	0.0999998	0.000111588	2.46707
6.5995	4.018E-10	2.491594	0.1	0.000112141	2.491594
6.79949	3.831E-10	2.516199	0.0999998	0.000112688	2.516199
6.99949	4.008E-10	2.540724	0.1	0.000113234	2.540724
7.19949	4.077E-10	2.565246	0.1000001	0.000113774	2.565246
7.3995	3.43E-10	2.622957	0.1	0.000114305	2.622957
7.59949	3.851E-10	2.647588	0.0999999	0.000114845	2.647588
7.79952	3.887E-10	2.672101	0.1	0.000115376	2.672101
7.99948	3.921E-10	2.696617	0.1	0.000115904	2.696617
8.1995	4.129E-10	2.721187	0.1	0.00011643	2.721187
8.39952	3.973E-10	2.745674	0.1	0.000116952	2.745674
8.59949	4.09E-10	2.770186	0.1000001	0.000117469	2.770186
8.79949	4.149E-10	2.794685	0.0999998	0.000117986	2.794685
8.99949	4.259E-10	2.819198	0.1000001	0.000118499	2.819198
9.1995	4.161E-10	2.843749	0.1	0.000119011	2.843749
9.39949	4.11E-10	2.868326	0.0999998	0.000119524	2.868326
9.5995	4.428E-10	2.892843	0.0999999	0.000120031	2.892843
9.79949	4.297E-10	2.917362	0.1	0.000120538	2.917362
9.9995	4.233E-10	2.941874	0.1	0.000121041	2.941874
9.99947	3.852E-10	2.965216	0.1	0.000121043	2.965216
9.7995	2.933E-10	2.989731	0.1000002	0.00012054	2.989731
9.59949	2.434E-10	3.014241	0.1000001	0.000120035	3.014241
9.39952	2.243E-10	3.038778	0.1000001	0.000119527	3.038778
9.19949	1.932E-10	3.063288	0.1	0.000119018	3.063288
8.99951	1.988E-10	3.121663	0.0999999	0.000118504	3.121663
8.79951	1.65E-10	3.1462	0.1	0.000117987	3.1462
8.59951	1.461E-10	3.170729	0.0999998	0.000117464	3.170729
8.39951	1.237E-10	3.1953	0.0999999	0.000116935	3.1953
8.1995	1.124E-10	3.219969	0.0999998	0.000116401	3.219969
7.99949	1.048E-10	3.244487	0.0999999	0.000115866	3.244487
7.79949	8.16E-11	3.269025	0.1000002	0.000115327	3.269025
7.5995	7.05E-11	3.293524	0.1000001	0.000114788	3.293524
7.3995	7.37E-11	3.318054	0.1000002	0.000114244	3.318054
7.1995	5.16E-11	3.342628	0.0999998	0.000113699	3.342628
6.9995	3.73E-11	3.36717	0.1000001	0.000113152	3.36717
6.79949	4.01E-11	3.391692	0.0999999	0.0001126	3.391692
6.59952	3.46E-11	3.416201	0.0999999	0.000112045	3.416201
6.3995	1.31E-11	3.440718	0.0999999	0.000111487	3.440718
6.19951	-5E-12	3.465234	0.1	0.000110926	3.465234
5.99951	1.43E-11	3.489751	0.1000001	0.000110363	3.489751
5.79951	1.07E-10	3.514279	0.1	0.000109796	3.514279
5.59951	5.8E-12	3.538845	0.1000001	0.000109225	3.538845
5.39949	-2E-13	3.563389	0.1000001	0.000108652	3.563389
5.19951	4.13E-11	3.623463	0.0999998	0.00010808	3.623463
4.9995	-1.15E-11	3.647978	0.1000001	0.0001075	3.647978
4.79953	-2E-11	3.672522	0.1000001	0.000106917	3.672522
4.5995	-2.23E-11	3.69704	0.0999999	0.000106332	3.69704
4.3995	-3.62E-11	3.721612	0.0999998	0.000105745	3.721612
4.19951	-6.13E-11	3.746142	0.0999999	0.000105156	3.746142
3.99951	-4.04E-11	3.77067	0.0999999	0.000104565	3.77067
3.79951	-5.85E-11	3.795177	0.1	0.000103974	3.795177
3.5995	-6.67E-11	3.819676	0.1000002	0.00010338	3.819676
3.39951	-2.424E-10	3.844254	0.0999999	0.000102785	3.844254
3.1995	-1.06E-10	3.868826	0.0999998	0.000102192	3.868826
2.99951	-9.96E-11	3.893357	0.1	0.000101598	3.893357
2.79951	-1.083E-10	3.917869	0.0999996	0.000101005	3.917869
2.59952	-1.016E-10	3.942408	0.0999999	0.000100412	3.942408
2.39951	-1.063E-10	3.966929	0.1000003	9.9819E-05	3.966929
2.1995	-1.188E-10	3.991475	0.0999998	9.9229E-05	3.991475
1.99951	-1.124E-10	4.01598	0.0999998	9.8637E-05	4.01598
1.7995	-1.166E-10	4.040512	0.1	9.8051E-05	4.040512
1.59951	-1.401E-10	4.06503	0.1000001	9.7464E-05	4.06503
1.39951	-7.96E-11	4.12081	0.0999998	9.6883E-05	4.12081
1.1995	-1.352E-10	4.145368	0.1	9.6297E-05	4.145368
0.99953	-1.239E-10	4.169938	0.1000001	9.5717E-05	4.169938
0.79949	-1.328E-10	4.194524	0.0999999	9.514E-05	4.194524
0.59952	-1.4E-10	4.219098	0.1000001	9.4563E-05	4.219098
0.3995	-1.587E-10	4.243608	0.0999998	9.3987E-05	4.243608
0.19949	-1.526E-10	4.268133	0.0999999	9.3413E-05	4.268133
-0.00049	-1.556E-10	4.292629	0.0999999	9.2847E-05	4.292629
-0.2005	-1.71E-10	4.317135	0.1	9.2282E-05	4.317135
-0.40049	-1.749E-10	4.341717	0.1	9.1729E-05	4.341717
-0.60048	-1.74E-10	4.366314	0.1	9.1184E-05	4.366314
-0.8005	-1.83E-10	4.390853	0.0999999	9.0649E-05	4.390853
-1.0005	-1.848E-10	4.415359	0.1	9.0129E-05	4.415359
-1.20048	-1.792E-10	4.439891	0.1000002	8.9616E-05	4.439891
-1.4005	-1.984E-10	4.46436	0.1	8.911E-05	4.46436
-1.60049	-2.061E-10	4.488899	0.1	8.8607E-05	4.488899
-1.80051	-1.87E-10	4.516734	0.1000047	8.80295E-05	4.516734
-2.00048	-2.051E-10	4.541314	0.1000041	8.75304E-05	4.541314
-2.20048	-2.005E-10	4.56584	0.1000038	8.7032E-05	4.56584
-2.40049	-1.358E-10	4.629628	0.1000041	8.65336E-05	4.629628
-2.6005	-1.923E-10	4.654172	0.1000049	8.60324E-05	4.654172
-2.80051	-2.058E-10	4.678702	0.1000046	8.55301E-05	4.678702
-3.00048	-2.083E-10	4.703232	0.1000045	8.50269E-05	4.703232
-3.2005	-2.19E-10	4.727798	0.1000051	8.45236E-05	4.727798
-3.40048	-2.19E-10	4.752419	0.1000051	8.40197E-05	4.752419
-3.60046	-2.275E-10	4.776936	0.1000044	8.35125E-05	4.776936
-3.80049	-2.29E-10	4.801471	0.1000051	8.30068E-05	4.801471
-4.00049	-2.328E-10	4.826081	0.1000042	8.24985E-05	4.826081
-4.20051	-2.502E-10	4.850669	0.1000051	8.19903E-05	4.850669
-4.40051	-2.341E-10	4.87523	0.1000045	8.14796E-05	4.87523
-4.60047	-2.409E-10	4.899755	0.1000045	8.09669E-05	4.899755
-4.80048	-1.014E-10	4.924276	0.100005	8.04546E-05	4.924276
-5.00048	-2.203E-10	4.948837	0.1000032	7.99383E-05	4.948837
-5.20046	-2.388E-10	4.973369	0.1000053	7.94236E-05	4.973369
-5.40049	-2.557E-10	4.99787	0.100006	7.89067E-05	4.99787
-5.60048	-2.613E-10	5.022401	0.1000049	7.83863E-05	5.022401
-5.80049	-2.571E-10	5.046919	0.1000048	7.78652E-05	5.046919
-6.00048	-2.694E-10	5.071461	0.1000058	7.73421E-05	5.071461
-6.20048	-2.084E-10	5.12846	0.1000051	7.68194E-05	5.12846
-6.40049	-2.42E-10	5.152996	0.1000058	7.62916E-05	5.152996
-6.60046	-2.641E-10	5.17752	0.1000054	7.57629E-05	5.17752
-6.80047	-2.735E-10	5.202098	0.1000063	7.52332E-05	5.202098
-7.00048	-2.595E-10	5.226663	0.1000063	7.4701E-05	5.226663
-7.20048	-2.784E-10	5.251187	0.1000054	7.41653E-05	5.251187
-7.40048	-2.805E-10	5.275798	0.1000055	7.36292E-05	5.275798
-7.60048	-4.143E-10	5.300318	0.1000041	7.30901E-05	5.300318
-7.80047	-3.169E-10	5.324844	0.1000053	7.255E-05	5.324844
-8.0005	-3.005E-10	5.349411	0.1000047	7.20069E-05	5.349411
-8.20049	-3.018E-10	5.37398	0.1000049	7.14633E-05	5.37398
-8.4005	-3.02E-10	5.398491	0.1000052	7.09175E-05	5.398491
-8.6005	-3.034E-10	5.423019	0.1000059	7.03678E-05	5.423019
-8.80047	-3.173E-10	5.447526	0.1000053	6.98184E-05	5.447526
-9.00049	-3.022E-10	5.472069	0.100005	6.92649E-05	5.472069
-9.20048	-3.119E-10	5.496581	0.1000053	6.87116E-05	5.496581
-9.40048	-3.311E-10	5.521165	0.100006	6.81545E-05	5.521165
-9.60049	-3.183E-10	5.545699	0.1000056	6.75954E-05	5.545699
-9.80048	-3.109E-10	5.570255	0.1000042	6.7038E-05	5.570255
-10.0005	-2.658E-10	5.630014	0.1000058	6.64846E-05	5.630014
-10.20049	-3.023E-10	5.654549	0.1000063	6.59223E-05	5.654549
-10.40048	-2.921E-10	5.679073	0.1000062	6.53577E-05	5.679073
-10.6005	-3.228E-10	5.703576	0.1000052	6.47911E-05	5.703576
-10.8005	-3.357E-10	5.728148	0.1000049	6.42221E-05	5.728148
-11.00046	-3.168E-10	5.752675	0.1000061	6.36511E-05	5.752675
-11.2005	-3.225E-10	5.777184	0.100004	6.30774E-05	5.777184
-11.40049	-3.436E-10	5.801713	0.1000055	6.25027E-05	5.801713
-11.60048	-3.332E-10	5.826214	0.1000049	6.19237E-05	5.826214
-11.80048	-3.389E-10	5.850777	0.1000056	6.13439E-05	5.850777
-12.00048	-3.464E-10	5.875341	0.1000059	6.07624E-05	5.875341
#scan	iMeasureCycle=2	iMux=0	time=279.862	N=222	LocalTime=22/06/2023 04:49:30
#VGate(V)	IGate(A)	time(s)	VDrain(V)	IDrain(A)	time(s)
-12.00046	-8.51E-11	279.869488	0.100006	6.07892E-05	279.869488
-11.80049	-2.62E-11	279.894412	0.1000056	6.13735E-05	279.894412
-11.60049	3.9E-12	279.920031	0.1000061	6.19569E-05	279.920031
-11.4005	4.11E-11	279.944571	0.1000053	6.25361E-05	279.944571
-11.20051	3.29E-11	279.969102	0.1000057	6.31146E-05	279.969102
-11.00048	4.28E-11	279.993636	0.1000059	6.36906E-05	279.993636
-10.80049	6.78E-11	280.018165	0.1000057	6.42645E-05	280.018165
-10.60049	8.65E-11	280.042694	0.1000064	6.48359E-05	280.042694
-10.40049	6.83E-11	280.067373	0.100005	6.5405E-05	280.067373
-10.2005	8.68E-11	280.091906	0.1000056	6.59737E-05	280.091906
-10.00051	1.103E-10	280.116501	0.1000064	6.65386E-05	280.116501
-9.8005	9.62E-11	280.14105	0.1000057	6.71042E-05	280.14105
-9.6005	9.8E-11	280.165562	0.1000058	6.76659E-05	280.165562
-9.40048	1.246E-10	280.190087	0.1000053	6.82273E-05	280.190087
-9.20049	1.123E-10	280.214614	0.1000049	6.87846E-05	280.214614
-9.0005	1.3E-10	280.239129	0.1000058	6.9338E-05	280.239129
-8.80047	1.405E-10	280.263649	0.1000057	6.98886E-05	280.263649
-8.60051	1.435E-10	280.288179	0.1000064	7.04353E-05	280.288179
-8.40049	1.411E-10	280.312703	0.1000058	7.0981E-05	280.312703
-8.20049	1.499E-10	280.337228	0.1000066	7.15249E-05	280.337228
-8.0005	1.622E-10	280.361743	0.1000055	7.20661E-05	280.361743
-7.80048	1.657E-10	280.386299	0.1000055	7.26059E-05	280.386299
-7.60049	1.193E-10	280.433341	0.1000059	7.31412E-05	280.433341
-7.4005	1.503E-10	280.457853	0.1000065	7.3679E-05	280.457853
-7.20051	1.563E-10	280.482397	0.1000047	7.42136E-05	280.482397
-7.0005	1.773E-10	280.506898	0.1000043	7.4747E-05	280.506898
-6.80047	1.737E-10	280.531493	0.1000048	7.52787E-05	280.531493
-6.60051	1.667E-10	280.556011	0.1000056	7.58092E-05	280.556011
-6.40049	1.943E-10	280.580542	0.1000058	7.63381E-05	280.580542
-6.20051	2.056E-10	280.60506	0.100005	7.68631E-05	280.60506
-6.00053	1.882E-10	280.629571	0.1000051	7.7388E-05	280.629571
-5.80046	1.874E-10	280.654092	0.1000055	7.79114E-05	280.654092
-5.60051	2.131E-10	280.678598	0.1000048	7.84314E-05	280.678598
-5.4005	4.568E-10	280.70311	0.1000048	7.89502E-05	280.70311
-5.2005	2.194E-10	280.72764	0.1000048	7.94694E-05	280.72764
-5.0005	2.273E-10	280.752306	0.100006	7.99858E-05	280.752306
-4.80047	2.41E-10	280.776822	0.1000055	8.04995E-05	280.776822
-4.60048	2.271E-10	280.801357	0.1000048	8.10119E-05	280.801357
-4.40049	2.337E-10	280.825875	0.1000051	8.15245E-05	280.825875
-4.20048	2.432E-10	280.850429	0.1000057	8.20355E-05	280.850429
-4.0005	2.438E-10	280.874947	0.1000054	8.25442E-05	280.874947
-3.8005	1.74E-10	280.934505	0.1000053	8.30488E-05	280.934505
-3.6005	2.25E-10	280.959052	0.1000047	8.35565E-05	280.959052
-3.40051	2.463E-10	280.983566	0.100004	8.40628E-05	280.983566
-3.20047	2.303E-10	281.008075	0.1000054	8.45692E-05	281.008075
-3.0005	2.508E-10	281.03266	0.1000049	8.50725E-05	281.03266
-2.80049	2.543E-10	281.057185	0.1000052	8.55771E-05	281.057185
-2.6005	2.463E-10	281.081722	0.1000046	8.60793E-05	281.081722
-2.40051	2.587E-10	281.106274	0.100005	8.65811E-05	281.106274
-2.2005	2.687E-10	281.130813	0.1000047	8.70816E-05	281.130813
-2.00049	2.559E-10	281.155411	0.1000045	8.75819E-05	281.155411
-1.80048	2.698E-10	281.17994	0.1000045	8.80836E-05	281.17994
-1.60048	2.837E-10	281.204432	0.1000058	8.85856E-05	281.204432
-1.40049	2.732E-10	281.22896	0.1000048	8.90894E-05	281.22896
-1.20051	2.648E-10	281.25347	0.1000043	8.96E-05	281.25347
-1.00052	2.194E-10	281.277997	0.1000045	9.01167E-05	281.277997
-0.80051	2.774E-10	281.302521	0.1000043	9.06477E-05	281.302521
-0.6005	2.809E-10	281.327052	0.1000047	9.11864E-05	281.327052
-0.40048	2.715E-10	281.351567	0.1000051	9.17366E-05	281.351567
-0.20051	3.052E-10	281.37613	0.1000046	9.22943E-05	281.37613
-0.0005	2.393E-10	281.435828	0.1000033	9.28504E-05	281.435828
0.19948	2.701E-10	281.460454	0.1000036	9.34212E-05	281.460454
0.3995	2.93E-10	281.484963	0.1000043	9.39953E-05	281.484963
0.59951	2.95E-10	281.509474	0.1000036	9.45689E-05	281.509474
0.79948	2.833E-10	281.534053	0.1000037	9.51451E-05	281.534053
0.9995	2.984E-10	281.558556	0.1000038	9.5723E-05	281.558556
1.19949	3.322E-10	281.583074	0.1000043	9.63028E-05	281.583074
1.39949	3.018E-10	281.607598	0.1000034	9.68818E-05	281.607598
1.5995	3.089E-10	281.632122	0.100004	9.74677E-05	281.632122
1.7995	3.282E-10	281.656645	0.1000042	9.80529E-05	281.656645
1.99949	3.24E-10	281.681161	0.1000035	9.86386E-05	281.681161
2.19949	3.371E-10	281.705664	0.1000033	9.92274E-05	281.705664
2.39948	3.306E-10	281.730173	0.1000034	9.98165E-05	281.730173
2.59949	3.287E-10	281.754697	0.1000038	0.0001004072	281.754697
2.79949	3.425E-10	281.779271	0.1000041	0.0001009984	281.779271
2.99949	3.441E-10	281.803795	0.1000039	0.000101591	281.803795
3.1995	3.591E-10	281.828326	0.1000042	0.0001021833	281.828326
3.39949	3.45E-10	281.852842	0.1000036	0.0001027739	281.852842
3.5995	3.392E-10	281.877348	0.1000035	0.0001033643	281.877348
3.79947	3.074E-10	281.937681	0.1000031	0.0001039472	281.937681
3.99949	3.491E-10	281.962207	0.1000037	0.0001045388	281.962207
4.19948	3.27E-10	281.991822	0.0999999	0.000105203	281.991822
4.3995	3.396E-10	282.016349	0.1000002	0.000105789	282.016349
4.59951	3.485E-10	282.040952	0.1000001	0.000106374	282.040952
4.79949	3.549E-10	282.065475	0.1000001	0.000106955	282.065475
4.99951	3.656E-10	282.090013	0.1000001	0.000107532	282.090013
5.19948	4.766E-10	282.114566	0.1	0.000108107	282.114566
5.3995	3.744E-10	282.139092	0.1	0.000108678	282.139092
5.5995	3.967E-10	282.163614	0.1	0.000109246	282.163614
5.79949	3.825E-10	282.188124	0.0999998	0.000109813	282.188124
5.99948	3.725E-10	282.212638	0.0999998	0.000110375	282.212638
6.19949	3.938E-10	282.237149	0.0999998	0.000110934	282.237149
6.39948	3.933E-10	282.261674	0.1	0.00011149	282.261674
6.59948	3.913E-10	282.286193	0.0999999	0.000112042	282.286193
6.79948	3.877E-10	282.310698	0.1	0.000112589	282.310698
6.99949	3.993E-10	282.335219	0.1	0.000113136	282.335219
7.19948	4.039E-10	282.359734	0.1000002	0.000113678	282.359734
7.39947	4.07E-10	282.384295	0.1	0.000114216	282.384295
7.59948	3.589E-10	282.442286	0.0999999	0.000114749	282.442286
7.79947	3.814E-10	282.466803	0.1	0.000115284	282.466803
7.9995	2.731E-10	282.491351	0.1	0.000115812	282.491351
8.19949	3.843E-10	282.515856	0.1	0.00011634	282.515856
8.39949	3.93E-10	282.540451	0.1000001	0.000116863	282.540451
8.59948	3.984E-10	282.564965	0.1000004	0.000117383	282.564965
8.79951	4.124E-10	282.5895	0.0999998	0.000117902	282.5895
8.9995	3.958E-10	282.614007	0.0999999	0.000118412	282.614007
9.19952	4.126E-10	282.638543	0.1	0.000118928	282.638543
9.39949	4.197E-10	282.663066	0.0999999	0.000119441	282.663066
9.59948	4.272E-10	282.687593	0.1	0.000119948	282.687593
9.79949	4.11E-10	282.712103	0.0999998	0.000120456	282.712103
9.99948	4.123E-10	282.736617	0.0999999	0.000120962	282.736617
9.99948	3.891E-10	282.75997	0.1	0.000120962	282.75997
9.7995	2.877E-10	282.784558	0.1	0.000120458	282.784558
9.59948	2.314E-10	282.809071	0.0999999	0.000119951	282.809071
9.3995	2.119E-10	282.833612	0.0999998	0.000119446	282.833612
9.19948	1.94E-10	282.858132	0.1	0.000118935	282.858132
8.9995	1.691E-10	282.882691	0.1000001	0.000118422	282.882691
8.7995	2.028E-10	282.940829	0.1	0.000117902	282.940829
8.59951	1.551E-10	282.965361	0.1000002	0.000117375	282.965361
8.3995	1.132E-10	282.989908	0.0999999	0.000116849	282.989908
8.19948	1.029E-10	283.014425	0.0999999	0.000116314	283.014425
7.99948	1.032E-10	283.038998	0.1000001	0.00011578	283.038998
7.79949	8.8E-11	283.063615	0.1000002	0.000115243	283.063615
7.5995	6.99E-11	283.088137	0.0999999	0.000114702	283.088137
7.39949	5.68E-11	283.112672	0.1000001	0.000114159	283.112672
7.1995	4.66E-11	283.137198	0.1	0.000113611	283.137198
6.99949	3.82E-11	283.161737	0.1	0.000113062	283.161737
6.79952	4.59E-11	283.186269	0.0999998	0.00011251	283.186269
6.59951	1.92E-11	283.210793	0.1	0.000111954	283.210793
6.39949	2.9E-12	283.235296	0.0999999	0.000111396	283.235296
6.1995	1.07E-11	283.259823	0.0999999	0.000110837	283.259823
5.9995	1.68E-11	283.284344	0.1	0.000110274	283.284344
5.79951	-1.08E-11	283.308866	0.0999999	0.000109705	283.308866
5.5995	-3.81E-11	283.333374	0.0999999	0.000109133	283.333374
5.39949	-2.9E-12	283.357906	0.1000002	0.000108559	283.357906
5.19951	-9.5E-12	283.382678	0.1000002	0.000107983	283.382678
4.9995	1.98E-11	283.442626	0.0999999	0.000107406	283.442626
4.7995	-2.22E-11	283.467202	0.1000001	0.000106822	283.467202
4.59952	-3.13E-11	283.491732	0.0999999	0.000106236	283.491732
4.39948	7.95E-11	283.516259	0.0999998	0.000105648	283.516259
4.19951	-3.02E-11	283.540827	0.0999999	0.000105059	283.540827
3.9995	-3.06E-11	283.56544	0.1000001	0.000104468	283.56544
3.79951	-6.18E-11	283.589956	0.0999999	0.000103875	283.589956
3.59952	-7.94E-11	283.614494	0.1000001	0.000103283	283.614494
3.3995	-5.96E-11	283.639012	0.0999999	0.000102688	283.639012
3.19951	-6.65E-11	283.663533	0.1000001	0.000102094	283.663533
2.99951	-8.93E-11	283.688053	0.0999999	0.0001015	283.688053
2.7995	-1.066E-10	283.712578	0.0999999	0.000100908	283.712578
2.59951	-9.45E-11	283.737092	0.0999998	0.000100316	283.737092
2.3995	-8.98E-11	283.761595	0.1000002	9.9722E-05	283.761595
2.19951	-1.124E-10	283.786156	0.0999999	9.913E-05	283.786156
1.9995	-1.141E-10	283.81069	0.0999999	9.8538E-05	283.81069
1.79951	-2.598E-10	283.835198	0.0999996	9.7951E-05	283.835198
1.5995	-1.382E-10	283.859708	0.1000001	9.7364E-05	283.859708
1.39952	-1.285E-10	283.884368	0.1	9.678E-05	283.884368
1.19953	-8.11E-11	283.944408	0.1000003	9.62E-05	283.944408
0.99949	-1.208E-10	283.968924	0.0999997	9.5618E-05	283.968924
0.79951	-1.422E-10	283.993447	0.1	9.5039E-05	283.993447
0.5995	-1.228E-10	284.017968	0.1	9.4461E-05	284.017968
0.39952	-1.41E-10	284.042534	0.1000002	9.3888E-05	284.042534
0.19951	-1.657E-10	284.067084	0.0999998	9.3314E-05	284.067084
-0.00049	-1.471E-10	284.091594	0.1	9.2744E-05	284.091594
-0.20052	-1.523E-10	284.116445	0.0999999	9.2183E-05	284.116445
-0.40051	-1.758E-10	284.141003	0.1000001	9.1626E-05	284.141003
-0.60047	-1.721E-10	284.165517	0.1000001	9.1082E-05	284.165517
-0.80051	-1.666E-10	284.190131	0.1	9.0549E-05	284.190131
-1.00048	-1.869E-10	284.214642	0.1	9.0028E-05	284.214642
-1.2005	-1.907E-10	284.239164	0.0999999	8.9516E-05	284.239164
-1.40051	-1.848E-10	284.263691	0.1	8.901E-05	284.263691
-1.60048	-1.945E-10	284.288178	0.0999999	8.8507E-05	284.288178
-1.8005	-1.663E-10	284.316019	0.1000037	8.79275E-05	284.316019
-2.00049	-2.054E-10	284.340525	0.1000056	8.74299E-05	284.340525
-2.20049	-2.07E-10	284.365063	0.1000048	8.69289E-05	284.365063
-2.40049	-2.025E-10	284.389567	0.1000042	8.64291E-05	284.389567
-2.60047	-1.633E-10	284.4487	0.1000047	8.59295E-05	284.4487
-2.80048	-2.163E-10	284.473401	0.1000047	8.54277E-05	284.473401
-3.00049	-1.864E-10	284.49792	0.100005	8.49247E-05	284.49792
-3.20049	-2.002E-10	284.522442	0.1000044	8.44197E-05	284.522442
-3.40048	-2.257E-10	284.547012	0.1000048	8.3915E-05	284.547012
-3.60049	-2.214E-10	284.571533	0.1000049	8.34104E-05	284.571533
-3.80047	-2.31E-10	284.596063	0.1000051	8.29033E-05	284.596063
-4.00051	-2.252E-10	284.620572	0.1000051	8.23951E-05	284.620572
-4.20049	-2.367E-10	284.645082	0.100005	8.18863E-05	284.645082
-4.4005	-2.403E-10	284.669597	0.1000049	8.13768E-05	284.669597
-4.60049	-2.502E-10	284.694121	0.1000044	8.08631E-05	284.694121
-4.80047	-2.554E-10	284.718643	0.1000051	8.03507E-05	284.718643
-5.0005	-2.395E-10	284.743161	0.1000049	7.98358E-05	284.743161
-5.20049	-2.49E-10	284.767682	0.1000054	7.93201E-05	284.767682
-5.4005	-2.802E-10	284.792243	0.1000048	7.88018E-05	284.792243
-5.60048	-2.595E-10	284.816768	0.1000047	7.82819E-05	284.816768
-5.80048	-2.432E-10	284.841305	0.1000055	7.77611E-05	284.841305
-6.00048	-2.74E-10	284.865819	0.1000052	7.72365E-05	284.865819
-6.20051	-2.804E-10	284.890408	0.1000052	7.67116E-05	284.890408
-6.40049	-1.864E-10	284.947708	0.1000057	7.61876E-05	284.947708
-6.60049	-2.59E-10	284.972358	0.1000054	7.5658E-05	284.972358
-6.80046	-2.5E-10	284.996908	0.1000054	7.51276E-05	284.996908
-7.0005	-2.469E-10	285.021418	0.1000064	7.45947E-05	285.021418
-7.20047	-2.733E-10	285.046001	0.1000051	7.40589E-05	285.046001
-7.40048	-2.841E-10	285.07052	0.1000059	7.3523E-05	285.07052
-7.60048	-2.732E-10	285.095036	0.1000061	7.29837E-05	285.095036
-7.80049	-2.847E-10	285.119587	0.1000058	7.24442E-05	285.119587
-8.00049	-2.869E-10	285.144107	0.1000054	7.1901E-05	285.144107
-8.20047	-2.961E-10	285.168616	0.1000059	7.13561E-05	285.168616
-8.4005	-3.116E-10	285.193141	0.1000065	7.08103E-05	285.193141
-8.60051	-4.401E-10	285.217651	0.1000056	7.02603E-05	285.217651
-8.80049	-3.194E-10	285.242169	0.1000064	6.97103E-05	285.242169
-9.00049	-3.166E-10	285.266666	0.1000059	6.9156E-05	285.266666
-9.20047	-3.235E-10	285.291195	0.1000054	6.86024E-05	285.291195
-9.40048	-3.341E-10	285.315709	0.1000065	6.80456E-05	285.315709
-9.60048	-3.114E-10	285.340211	0.1000057	6.74861E-05	285.340211
-9.80048	-3.144E-10	285.364734	0.1000064	6.69302E-05	285.364734
-10.00047	-3.449E-10	285.389328	0.1000061	6.63681E-05	285.389328
-10.20048	-2.653E-10	285.449275	0.1000061	6.58149E-05	285.449275
-10.40046	-3.173E-10	285.473865	0.1000067	6.52489E-05	285.473865
-10.60048	-3.187E-10	285.498411	0.1000061	6.4681E-05	285.498411
-10.80047	-3.277E-10	285.522919	0.1000054	6.41109E-05	285.522919
-11.00048	-3.177E-10	285.547494	0.100005	6.35399E-05	285.547494
-11.20048	-3.489E-10	285.572014	0.1000066	6.29672E-05	285.572014
-11.4005	-3.521E-10	285.596533	0.1000049	6.23907E-05	285.596533
-11.60049	-3.239E-10	285.621045	0.1000064	6.18134E-05	285.621045
-11.80049	-3.434E-10	285.645551	0.1000065	6.12337E-05	285.645551
-12.00049	-3.623E-10	285.670046	0.1000063	6.06507E-05	285.670046
#scan	iMeasureCycle=3	iMux=0	time=319.874	N=222	LocalTime=22/06/2023 04:50:10
#VGate(V)	IGate(A)	time(s)	VDrain(V)	IDrain(A)	time(s)
-12.00049	-8.12E-11	319.88149	0.1000064	6.08085E-05	319.88149
-11.80049	-2.16E-11	319.906363	0.1000057	6.13931E-05	319.906363
-11.6005	-1.09E-11	319.932199	0.100004	6.19749E-05	319.932199
-11.40051	1.35E-11	319.957004	0.1000039	6.25556E-05	319.957004
-11.2005	5E-11	319.981548	0.1000049	6.31333E-05	319.981548
-11.00047	4.71E-11	320.006062	0.1000066	6.37108E-05	320.006062
-10.80049	4.8E-11	320.030605	0.1000063	6.42847E-05	320.030605
-10.60051	7.44E-11	320.055123	0.1000049	6.48559E-05	320.055123
-10.40047	8.2E-11	320.079658	0.1000067	6.5426E-05	320.079658
-10.2005	8.52E-11	320.104261	0.1000069	6.59939E-05	320.104261
-10.0005	8.28E-11	320.128801	0.100006	6.65586E-05	320.128801
-9.80049	2.551E-10	320.153311	0.1000056	6.71233E-05	320.153311
-9.60049	1.349E-10	320.177911	0.1000066	6.7686E-05	320.177911
-9.4005	1.172E-10	320.202453	0.1000071	6.82477E-05	320.202453
-9.20048	1.223E-10	320.226984	0.1000056	6.88038E-05	320.226984
-9.00049	1.383E-10	320.251501	0.1000056	6.93571E-05	320.251501
-8.8005	1.4E-10	320.276021	0.1000058	6.99086E-05	320.276021
-8.60052	1.39E-10	320.300548	0.1000059	7.04555E-05	320.300548
-8.4005	1.565E-10	320.325061	0.1000055	7.10002E-05	320.325061
-8.20049	1.502E-10	320.349573	0.1000054	7.15442E-05	320.349573
-8.0005	1.555E-10	320.374083	0.1000062	7.20864E-05	320.374083
-7.80049	1.645E-10	320.398615	0.1000054	7.2625E-05	320.398615
-7.60049	-3.8E-12	320.445041	0.1000054	7.31612E-05	320.445041
-7.4005	1.495E-10	320.469584	0.1000039	7.36973E-05	320.469584
-7.20049	1.475E-10	320.494173	0.1000053	7.42337E-05	320.494173
-7.00049	1.521E-10	320.518703	0.1000044	7.47668E-05	320.518703
-6.80048	1.697E-10	320.543295	0.1000053	7.52988E-05	320.543295
-6.60047	1.79E-10	320.567819	0.1000053	7.58288E-05	320.567819
-6.40048	1.853E-10	320.592354	0.1000053	7.63558E-05	320.592354
-6.20051	1.727E-10	320.616948	0.1000054	7.68829E-05	320.616948
-6.00049	2.051E-10	320.641457	0.1000046	7.74063E-05	320.641457
-5.80049	1.927E-10	320.665971	0.1000044	7.79295E-05	320.665971
-5.60051	1.938E-10	320.690473	0.1000049	7.84503E-05	320.690473
-5.40048	2.177E-10	320.714999	0.1000047	7.89689E-05	320.714999
-5.2005	2.115E-10	320.739517	0.1000054	7.94869E-05	320.739517
-5.0005	2.147E-10	320.764029	0.1000048	8.00023E-05	320.764029
-4.80051	2.14E-10	320.788534	0.1000041	8.05169E-05	320.788534
-4.6005	2.25E-10	320.813059	0.1000057	8.10309E-05	320.813059
-4.40051	2.313E-10	320.837644	0.1000043	8.15423E-05	320.837644
-4.2005	2.164E-10	320.862158	0.1000048	8.20526E-05	320.862158
-4.0005	2.371E-10	320.886649	0.1000048	8.25603E-05	320.886649
-3.80051	1.689E-10	320.946829	0.1000047	8.30656E-05	320.946829
-3.60049	2.13E-10	320.971359	0.1000047	8.35727E-05	320.971359
-3.4005	2.272E-10	320.995873	0.1000052	8.40803E-05	320.995873
-3.2005	2.396E-10	321.020381	0.1000044	8.45849E-05	321.020381
-3.0005	2.295E-10	321.044948	0.1000046	8.50883E-05	321.044948
-2.80049	2.382E-10	321.069465	0.1000053	8.55925E-05	321.069465
-2.60048	2.615E-10	321.093968	0.1000048	8.6095E-05	321.093968
-2.40048	2.605E-10	321.118492	0.1000046	8.6596E-05	321.118492
-2.2005	2.469E-10	321.143029	0.1000057	8.70972E-05	321.143029
-2.00052	2.64E-10	321.167618	0.1000031	8.75966E-05	321.167618
-1.80051	2.691E-10	321.192129	0.1000041	8.8097E-05	321.192129
-1.60052	2.661E-10	321.21665	0.1000043	8.8597E-05	321.21665
-1.4005	2.727E-10	321.241166	0.1000046	8.91028E-05	321.241166
-1.2005	2.764E-10	321.265684	0.1000047	8.96117E-05	321.265684
-1.0005	2.796E-10	321.290204	0.1000042	9.01291E-05	321.290204
-0.80051	2.732E-10	321.314745	0.1000044	9.06571E-05	321.314745
-0.60049	2.944E-10	321.339272	0.100005	9.11966E-05	321.339272
-0.4005	2.931E-10	321.363803	0.1000041	9.17466E-05	321.363803
-0.20052	2.907E-10	321.388318	0.100004	9.23033E-05	321.388318
-0.0005	2.503E-10	321.447949	0.1000042	9.28621E-05	321.447949
0.19949	2.792E-10	321.472476	0.1000039	9.3433E-05	321.472476
0.39952	2.863E-10	321.497062	0.1000047	9.40062E-05	321.497062
0.59949	2.866E-10	321.521587	0.1000043	9.45806E-05	321.521587
0.79948	3.051E-10	321.546178	0.1000046	9.51565E-05	321.546178
0.99949	4.676E-10	321.570692	0.1000035	9.57346E-05	321.570692
1.19949	3.251E-10	321.595214	0.1000038	9.63139E-05	321.595214
1.39948	3.21E-10	321.619731	0.100004	9.68957E-05	321.619731
1.5995	3.251E-10	321.644276	0.100004	9.74789E-05	321.644276
1.7995	3.227E-10	321.66879	0.1000042	9.80637E-05	321.66879
1.99952	3.355E-10	321.693321	0.1000042	9.86513E-05	321.693321
2.19952	3.417E-10	321.71783	0.1000043	9.92384E-05	321.71783
2.3995	3.298E-10	321.742375	0.1000042	9.98292E-05	321.742375
2.5995	3.341E-10	321.766893	0.1000043	0.0001004197	321.766893
2.7995	3.526E-10	321.791433	0.1000043	0.0001010094	321.791433
2.99949	3.462E-10	321.81601	0.1000037	0.0001016015	321.81601
3.1995	3.436E-10	321.840583	0.1000046	0.0001021941	321.840583
3.39949	3.445E-10	321.865094	0.1000039	0.0001027843	321.865094
3.5995	3.617E-10	321.889622	0.1000048	0.0001033755	321.889622
3.7995	2.752E-10	321.949609	0.1000039	0.0001039598	321.949609
3.99949	3.187E-10	321.974159	0.1000038	0.00010455	321.974159
4.19949	2.967E-10	322.003749	0.1	0.000105216	322.003749
4.39947	3.389E-10	322.028257	0.1000001	0.000105801	322.028257
4.59952	3.566E-10	322.052858	0.1	0.000106384	322.052858
4.79949	3.425E-10	322.077372	0.0999998	0.000106965	322.077372
4.99949	3.516E-10	322.101895	0.0999999	0.000107543	322.101895
5.19951	3.574E-10	322.126482	0.1	0.000108118	322.126482
5.39949	3.596E-10	322.150993	0.1000001	0.00010869	322.150993
5.59949	3.674E-10	322.175566	0.0999999	0.000109259	322.175566
5.79951	3.704E-10	322.200079	0.1	0.000109824	322.200079
5.99948	3.772E-10	322.22461	0.1	0.000110386	322.22461
6.19948	3.767E-10	322.249123	0.0999999	0.000110945	322.249123
6.3995	3.669E-10	322.273644	0.1000001	0.000111503	322.273644
6.59949	4.067E-10	322.298163	0.0999999	0.000112054	322.298163
6.79949	3.851E-10	322.322694	0.1000001	0.000112605	322.322694
6.99949	3.797E-10	322.347198	0.1000002	0.000113152	322.347198
7.19948	3.961E-10	322.371724	0.1	0.000113693	322.371724
7.39951	4.09E-10	322.39623	0.1	0.000114231	322.39623
7.5995	3.343E-10	322.4539	0.1	0.000114763	322.4539
7.79948	3.769E-10	322.478428	0.0999998	0.000115296	322.478428
7.99948	3.89E-10	322.502982	0.0999999	0.000115828	322.502982
8.19951	3.758E-10	322.527511	0.1000003	0.000116354	322.527511
8.39949	4.023E-10	322.552083	0.0999997	0.000116875	322.552083
8.59948	4.066E-10	322.576595	0.0999997	0.000117395	322.576595
8.79947	3.946E-10	322.601126	0.1	0.000117915	322.601126
8.9995	4.056E-10	322.625633	0.1	0.000118427	322.625633
9.19947	4.226E-10	322.650162	0.0999998	0.000118939	322.650162
9.3995	4.067E-10	322.674672	0.1	0.000119453	322.674672
9.59951	4.125E-10	322.699196	0.1	0.000119962	322.699196
9.7995	4.24E-10	322.723654	0.0999999	0.000120468	322.723654
9.9995	4.2E-10	322.748183	0.1	0.000120972	322.748183
9.99949	3.653E-10	322.771529	0.1	0.000120973	322.771529
9.7995	2.951E-10	322.796028	0.1000002	0.00012047	322.796028
9.59949	2.468E-10	322.820532	0.1000001	0.000119965	322.820532
9.3995	1.999E-10	322.845089	0.1	0.00011946	322.845089
9.19951	1.84E-10	322.869623	0.1000003	0.000118948	322.869623
8.9995	1.792E-10	322.894126	0.1	0.000118435	322.894126
8.79949	1.858E-10	322.948839	0.0999999	0.000117914	322.948839
8.5995	3.069E-10	322.973391	0.1	0.000117389	322.973391
8.3995	1.337E-10	322.997906	0.1	0.000116862	322.997906
8.1998	-7.79E-11	323.022404	0.0999999	0.000116329	323.022404
7.99939	8.77E-11	323.046979	0.0999999	0.000115794	323.046979
7.79951	6.89E-11	323.071506	0.1	0.000115254	323.071506
7.59952	7.71E-11	323.096024	0.0999999	0.000114714	323.096024
7.39953	6.42E-11	323.120555	0.1000003	0.000114172	323.120555
7.19953	3.83E-11	323.145069	0.1	0.000113625	323.145069
6.99951	3.67E-11	323.169567	0.1	0.000113077	323.169567
6.79955	3.91E-11	323.194084	0.1000001	0.000112526	323.194084
6.59954	2.81E-11	323.218604	0.0999997	0.00011197	323.218604
6.39954	4.5E-12	323.243061	0.0999998	0.000111412	323.243061
6.19953	4.2E-12	323.267578	0.0999997	0.00011085	323.267578
5.99954	1.05E-11	323.292086	0.1	0.000110287	323.292086
5.79953	-9.2E-12	323.316597	0.1000001	0.000109719	323.316597
5.59956	-2.51E-11	323.341122	0.0999999	0.000109148	323.341122
5.39952	-1.86E-11	323.365633	0.1	0.000108574	323.365633
5.19953	-7.36E-11	323.39016	0.0999999	0.000107998	323.39016
4.99947	2.78E-11	323.439245	0.1	0.000107418	323.439245
4.7995	-2.19E-11	323.463856	0.1	0.000106836	323.463856
4.59949	-3.54E-11	323.488448	0.1000001	0.000106251	323.488448
4.39948	-4.95E-11	323.513041	0.0999998	0.000105662	323.513041
4.19951	-4.13E-11	323.539274	0.0999998	0.000105073	323.539274
3.99951	-5.17E-11	323.563785	0.0999999	0.000104483	323.563785
3.79949	-6.19E-11	323.588322	0.1	0.000103891	323.588322
3.59951	-8.41E-11	323.612826	0.1000001	0.000103296	323.612826
3.39948	-5.89E-11	323.637361	0.0999999	0.000102702	323.637361
3.19951	-8.84E-11	323.661867	0.1	0.000102108	323.661867
2.99949	-9.81E-11	323.686392	0.1	0.000101512	323.686392
2.79949	-9.42E-11	323.710904	0.0999999	0.00010092	323.710904
2.59951	-8.83E-11	323.73543	0.0999999	0.000100323	323.73543
2.39951	-1.099E-10	323.759947	0.1000001	9.9733E-05	323.759947
2.19949	-1.259E-10	323.784476	0.0999998	9.9142E-05	323.784476
1.99952	-1.125E-10	323.808989	0.0999999	9.8553E-05	323.808989
1.79948	-1.153E-10	323.833495	0.0999998	9.7965E-05	323.833495
1.59952	-1.291E-10	323.858055	0.1000002	9.7378E-05	323.858055
1.3995	-1.288E-10	323.882589	0.0999999	9.6793E-05	323.882589
1.19952	-1.352E-10	323.907098	0.1	9.621E-05	323.907098
0.99952	-8.26E-11	323.956104	0.0999998	9.5631E-05	323.956104
0.7995	-1.163E-10	323.980693	0.0999999	9.5052E-05	323.980693
0.59951	-1.44E-10	324.005218	0.1000002	9.4476E-05	324.005218
0.39951	-1.476E-10	324.02975	0.1	9.3898E-05	324.02975
0.19952	-1.395E-10	324.054397	0.0999999	9.3327E-05	324.054397
-0.00052	-1.524E-10	324.078905	0.0999999	9.2758E-05	324.078905
-0.20051	-1.683E-10	324.103423	0.1	9.2195E-05	324.103423
-0.40049	-1.802E-10	324.128033	0.1000002	9.164E-05	324.128033
-0.60049	-1.546E-10	324.152585	0.0999999	9.1096E-05	324.152585
-0.8005	-1.754E-10	324.177161	0.1	9.0565E-05	324.177161
-1.0005	-1.905E-10	324.201699	0.0999999	9.0043E-05	324.201699
-1.20051	-1.826E-10	324.226215	0.1	8.9531E-05	324.226215
-1.4005	-1.865E-10	324.250758	0.1	8.9025E-05	324.250758
-1.60049	-1.928E-10	324.275283	0.1	8.8524E-05	324.275283
-1.80052	-1.954E-10	324.299821	0.0999999	8.8025E-05	324.299821
-2.0005	-1.927E-10	324.327668	0.1000039	8.74442E-05	324.327668
-2.20049	-1.862E-10	324.352185	0.1000052	8.69459E-05	324.352185
-2.4005	-1.67E-11	324.376716	0.1000049	8.64464E-05	324.376716
-2.60049	-1.977E-10	324.401217	0.1000047	8.59442E-05	324.401217
-2.80048	-1.439E-10	324.460587	0.1000052	8.54451E-05	324.460587
-3.00048	-1.906E-10	324.485159	0.1000055	8.49424E-05	324.485159
-3.20051	-2.033E-10	324.509723	0.1000042	8.44388E-05	324.509723
-3.40048	-4.237E-10	324.534268	0.1000048	8.39337E-05	324.534268
-3.60047	-2.214E-10	324.558836	0.1000055	8.34288E-05	324.558836
-3.80049	-2.332E-10	324.58338	0.1000047	8.29218E-05	324.58338
-4.0005	-2.447E-10	324.607894	0.1000045	8.2415E-05	324.607894
-4.2005	-2.188E-10	324.632413	0.1000049	8.19046E-05	324.632413
-4.40049	-2.326E-10	324.656942	0.1000052	8.13953E-05	324.656942
-4.60047	-2.504E-10	324.681456	0.1000059	8.08838E-05	324.681456
-4.80049	-2.44E-10	324.705963	0.1000054	8.03712E-05	324.705963
-5.00047	-2.456E-10	324.730526	0.100005	7.98569E-05	324.730526
-5.20049	-2.456E-10	324.755046	0.1000058	7.93414E-05	324.755046
-5.4005	-2.631E-10	324.77957	0.1000046	7.88225E-05	324.77957
-5.60048	-2.517E-10	324.804074	0.1000062	7.83038E-05	324.804074
-5.80048	-2.596E-10	324.8286	0.1000062	7.7783E-05	324.8286
-6.0005	-2.719E-10	324.853163	0.1000062	7.72599E-05	324.853163
-6.20048	-2.673E-10	324.877679	0.1000056	7.67341E-05	324.877679
-6.40049	-2.732E-10	324.902189	0.1000052	7.62075E-05	324.902189
-6.60048	-2.092E-10	324.959486	0.1000051	7.56814E-05	324.959486
-6.80049	-2.451E-10	324.98404	0.100006	7.51506E-05	324.98404
-7.00047	-2.696E-10	325.00857	0.1000055	7.46177E-05	325.00857
-7.20047	-2.778E-10	325.033071	0.1000055	7.40824E-05	325.033071
-7.40048	-2.671E-10	325.057652	0.1000061	7.35472E-05	325.057652
-7.60049	-2.809E-10	325.082161	0.1000059	7.30087E-05	325.082161
-7.80048	-2.891E-10	325.106692	0.1000058	7.24671E-05	325.106692
-8.00049	-2.89E-10	325.131199	0.1000055	7.19251E-05	325.131199
-8.20046	-2.813E-10	325.155729	0.1000065	7.13813E-05	325.155729
-8.4005	-2.974E-10	325.180299	0.1000065	7.08349E-05	325.180299
-8.60051	-3.134E-10	325.204818	0.1000066	7.02857E-05	325.204818
-8.80047	-2.867E-10	325.229336	0.1000062	6.9736E-05	325.229336
-9.00048	-3.035E-10	325.253943	0.1000069	6.91836E-05	325.253943
-9.20048	-3.135E-10	325.278453	0.1000062	6.86272E-05	325.278453
-9.40048	-3.013E-10	325.302989	0.1000056	6.80712E-05	325.302989
-9.60048	-3.142E-10	325.327488	0.1000052	6.75131E-05	325.327488
-9.80046	-3.168E-10	325.352079	0.100006	6.69561E-05	325.352079
-10.0005	-3.259E-10	325.376583	0.1000065	6.63965E-05	325.376583
-10.20051	-3.163E-10	325.401091	0.1000062	6.58341E-05	325.401091
-10.40049	-2.729E-10	325.461245	0.1000067	6.52762E-05	325.461245
-10.60049	-3.043E-10	325.485796	0.1000064	6.47093E-05	325.485796
-10.80047	-2.982E-10	325.510337	0.1000059	6.41398E-05	325.510337
-11.00046	-3.207E-10	325.534859	0.1000062	6.35681E-05	325.534859
-11.20048	-3.209E-10	325.559419	0.1000068	6.29953E-05	325.559419
-11.40048	-3.271E-10	325.583939	0.1000067	6.24197E-05	325.583939
-11.6005	-3.235E-10	325.608449	0.1000064	6.18403E-05	325.608449
-11.8005	-3.34E-10	325.632956	0.1000065	6.12617E-05	325.632956
-12.00049	-3.457E-10	325.657563	0.1000068	6.068E-05	325.657563
