#scan	iMeasureCycle=1	iMux=0	time=0.038	N=222	LocalTime=22/06/2023 07:44:51
#VGate(V)	IGate(A)	time(s)	VDrain(V)	IDrain(A)	time(s)
-12.0005	-3.1176E-09	0.063801	0.1000071	6.66747E-05	0.063801
-11.80048	-2.9723E-09	0.088681	0.1000058	6.72412E-05	0.088681
-11.6005	-1.1521E-09	0.113212	0.1000056	6.78053E-05	0.113212
-11.4005	-4.845E-10	0.137791	0.100005	6.83672E-05	0.137791
-11.20052	-3.132E-10	0.162325	0.100005	6.89254E-05	0.162325
-11.00049	-1.821E-10	0.186852	0.1000065	6.94823E-05	0.186852
-10.8005	-1.452E-10	0.211392	0.1000065	7.0036E-05	0.211392
-10.60051	-8.46E-11	0.235906	0.1000055	7.05857E-05	0.235906
-10.40048	-6.57E-11	0.26045	0.1000058	7.11358E-05	0.26045
-10.20052	-2.18E-11	0.284964	0.1000058	7.16813E-05	0.284964
-10.00049	-5E-12	0.309505	0.1000051	7.22257E-05	0.309505
-9.80049	-4.1E-12	0.334016	0.1000057	7.277E-05	0.334016
-9.6005	3.77E-11	0.358537	0.1000057	7.33103E-05	0.358537
-9.40051	4.29E-11	0.383051	0.1000062	7.38494E-05	0.383051
-9.20048	4E-11	0.407656	0.1000066	7.43854E-05	0.407656
-9.00051	5.59E-11	0.432171	0.1000061	7.49161E-05	0.432171
-8.80047	8.35E-11	0.456691	0.1000064	7.54454E-05	0.456691
-8.6005	7.69E-11	0.481295	0.1000059	7.59682E-05	0.481295
-8.4005	9.02E-11	0.505817	0.1000052	7.64914E-05	0.505817
-8.20048	2.391E-10	0.530355	0.1000059	7.70124E-05	0.530355
-8.00051	1.299E-10	0.554876	0.1000064	7.7533E-05	0.554876
-7.8005	1.244E-10	0.579505	0.1000074	7.80498E-05	0.579505
-7.6005	8.96E-11	0.62757	0.1000053	7.85616E-05	0.62757
-7.4005	1.209E-10	0.652089	0.1000067	7.90771E-05	0.652089
-7.20047	1.167E-10	0.67671	0.100006	7.95897E-05	0.67671
-7.0005	1.562E-10	0.701227	0.1000061	8.01002E-05	0.701227
-6.80048	1.512E-10	0.725812	0.1000059	8.06084E-05	0.725812
-6.6005	1.44E-10	0.750331	0.1000061	8.11166E-05	0.750331
-6.40052	1.606E-10	0.774874	0.1000052	8.162E-05	0.774874
-6.20049	1.672E-10	0.799635	0.1000056	8.21242E-05	0.799635
-6.00051	1.755E-10	0.824152	0.1000062	8.26267E-05	0.824152
-5.8005	1.701E-10	0.848673	0.1000052	8.31272E-05	0.848673
-5.60048	1.893E-10	0.873195	0.1000051	8.36259E-05	0.873195
-5.40049	1.865E-10	0.897739	0.1000059	8.41225E-05	0.897739
-5.20048	4.72E-11	0.922259	0.1000046	8.46178E-05	0.922259
-5.00048	1.703E-10	0.946771	0.1000054	8.5112E-05	0.946771
-4.80049	1.969E-10	0.971291	0.1000049	8.56056E-05	0.971291
-4.60047	1.889E-10	0.995839	0.1000049	8.60968E-05	0.995839
-4.4005	2.097E-10	1.020364	0.1000048	8.65881E-05	1.020364
-4.20053	2.181E-10	1.044892	0.1000047	8.70762E-05	1.044892
-4.0005	2.108E-10	1.069407	0.1000052	8.75634E-05	1.069407
-3.80049	1.621E-10	1.128874	0.1000043	8.80473E-05	1.128874
-3.60051	2.147E-10	1.153453	0.100005	8.85342E-05	1.153453
-3.40052	2.125E-10	1.177989	0.1000044	8.90196E-05	1.177989
-3.20051	2.039E-10	1.202519	0.1000041	8.95033E-05	1.202519
-3.0005	2.35E-10	1.227104	0.1000046	8.99854E-05	1.227104
-2.80051	2.378E-10	1.251706	0.1000048	9.04682E-05	1.251706
-2.60048	2.237E-10	1.276248	0.100004	9.09481E-05	1.276248
-2.40051	2.413E-10	1.300762	0.1000044	9.14284E-05	1.300762
-2.20052	2.607E-10	1.325289	0.1000047	9.19073E-05	1.325289
-2.00049	2.459E-10	1.3498	0.1000046	9.23856E-05	1.3498
-1.80052	2.494E-10	1.374444	0.1000044	9.28657E-05	1.374444
-1.60051	2.622E-10	1.398933	0.1000046	9.3346E-05	1.398933
-1.40052	2.734E-10	1.423464	0.1000049	9.38321E-05	1.423464
-1.20051	2.659E-10	1.447979	0.1000044	9.43245E-05	1.447979
-1.0005	2.668E-10	1.472632	0.1000037	9.48255E-05	1.472632
-0.80052	2.925E-10	1.497174	0.1000042	9.53381E-05	1.497174
-0.60051	2.817E-10	1.521693	0.1000036	9.58575E-05	1.521693
-0.4005	2.727E-10	1.546215	0.1000039	9.63863E-05	1.546215
-0.2005	3.051E-10	1.570736	0.1000043	9.69207E-05	1.570736
-0.00051	2.415E-10	1.630256	0.1000039	9.74542E-05	1.630256
0.19949	2.602E-10	1.654795	0.1000043	9.79996E-05	1.654795
0.39949	2.944E-10	1.679318	0.1000039	9.85452E-05	1.679318
0.5995	2.96E-10	1.703855	0.1000041	9.90937E-05	1.703855
0.79949	2.883E-10	1.728419	0.1000039	9.9643E-05	1.728419
0.99951	3.041E-10	1.752956	0.1000036	0.0001001941	1.752956
1.19949	3.179E-10	1.777474	0.1000042	0.0001007463	1.777474
1.39949	3.025E-10	1.802245	0.1000035	0.0001013	1.802245
1.59948	3.18E-10	1.826775	0.1000038	0.0001018564	1.826775
1.79948	3.251E-10	1.851293	0.1000033	0.0001024125	1.851293
1.9995	3.258E-10	1.875898	0.1000038	0.0001029708	1.875898
2.1995	3.329E-10	1.900388	0.100004	0.0001035304	1.900388
2.39948	4.186E-10	1.924922	0.1000031	0.0001040924	1.924922
2.59951	3.904E-10	1.94944	0.1000037	0.0001046546	1.94944
2.79949	3.266E-10	1.97904	0.1000001	0.000105291	1.97904
2.9995	3.483E-10	2.003588	0.0999999	0.000105853	2.003588
3.19951	3.555E-10	2.028141	0.1000002	0.000106416	2.028141
3.39949	3.497E-10	2.052652	0.0999999	0.000106978	2.052652
3.5995	3.6E-10	2.077167	0.0999999	0.000107538	2.077167
3.7995	2.926E-10	2.134919	0.1	0.000108094	2.134919
3.99949	3.451E-10	2.159501	0.0999999	0.000108653	2.159501
4.19948	3.494E-10	2.184029	0.0999998	0.000109211	2.184029
4.39949	3.445E-10	2.208562	0.1	0.00010977	2.208562
4.5995	3.62E-10	2.233128	0.0999999	0.000110323	2.233128
4.79948	3.73E-10	2.257642	0.0999999	0.000110875	2.257642
4.99949	3.723E-10	2.282143	0.1000002	0.000111425	2.282143
5.1995	3.617E-10	2.306647	0.1000001	0.000111973	2.306647
5.39948	2.939E-10	2.331164	0.1	0.000112517	2.331164
5.5995	3.617E-10	2.355664	0.0999999	0.00011306	2.355664
5.79948	3.654E-10	2.38017	0.0999998	0.000113598	2.38017
5.99947	3.641E-10	2.404779	0.1000001	0.000114133	2.404779
6.1995	3.949E-10	2.4293	0.0999999	0.000114667	2.4293
6.39948	3.801E-10	2.453803	0.0999999	0.000115196	2.453803
6.59949	3.765E-10	2.478385	0.1	0.000115723	2.478385
6.79951	3.937E-10	2.502915	0.1	0.000116247	2.502915
6.99947	3.907E-10	2.527456	0.1	0.000116768	2.527456
7.19948	4.003E-10	2.551972	0.1	0.000117288	2.551972
7.39949	4.032E-10	2.576502	0.1	0.000117801	2.576502
7.59948	3.392E-10	2.634273	0.0999998	0.000118306	2.634273
7.7995	3.658E-10	2.658809	0.0999999	0.000118817	2.658809
7.99948	4.041E-10	2.683325	0.1000002	0.000119323	2.683325
8.19949	3.94E-10	2.707862	0.0999998	0.000119827	2.707862
8.3995	3.953E-10	2.732428	0.1000002	0.000120327	2.732428
8.59947	4.068E-10	2.756988	0.0999999	0.000120823	2.756988
8.7995	4.142E-10	2.781497	0.1000001	0.00012132	2.781497
8.99946	4.043E-10	2.806043	0.1000001	0.000121808	2.806043
9.19948	4.134E-10	2.830559	0.1	0.000122299	2.830559
9.39949	4.303E-10	2.855074	0.0999999	0.00012279	2.855074
9.59948	4.305E-10	2.879587	0.0999999	0.000123277	2.879587
9.7995	4.136E-10	2.904135	0.0999999	0.000123763	2.904135
9.9995	4.284E-10	2.928653	0.0999998	0.000124247	2.928653
9.99949	3.828E-10	2.952007	0.0999999	0.000124247	2.952007
9.79949	2.818E-10	2.976531	0.1000002	0.000123764	2.976531
9.5995	2.514E-10	3.001099	0.0999999	0.00012328	3.001099
9.39948	2.342E-10	3.025616	0.1000001	0.000122796	3.025616
9.19951	1.913E-10	3.05016	0.0999999	0.000122304	3.05016
8.99949	1.665E-10	3.074671	0.1000002	0.000121816	3.074671
8.79951	2.078E-10	3.135454	0.1	0.000121317	3.135454
8.5995	1.51E-10	3.160021	0.0999998	0.000120814	3.160021
8.39952	1.292E-10	3.184549	0.1	0.000120309	3.184549
8.19948	1.174E-10	3.20907	0.1	0.000119799	3.20907
7.99948	1.012E-10	3.23363	0.0999999	0.000119285	3.23363
7.7995	7.69E-11	3.258163	0.0999998	0.000118771	3.258163
7.5995	7.59E-11	3.282673	0.0999999	0.000118253	3.282673
7.3995	7.12E-11	3.307219	0.0999998	0.000117734	3.307219
7.19948	5.07E-11	3.331726	0.1000001	0.000117214	3.331726
6.99949	9.63E-11	3.356248	0.1	0.000116689	3.356248
6.79953	5.69E-11	3.380769	0.1	0.000116162	3.380769
6.5995	3.72E-11	3.405325	0.1	0.000115632	3.405325
6.39949	2.34E-11	3.429847	0.0999998	0.000115098	3.429847
6.1995	1.12E-11	3.454378	0.1000001	0.000114562	3.454378
5.99948	2.11E-11	3.478949	0.1	0.000114022	3.478949
5.79952	-2.9E-12	3.503496	0.1	0.000113481	3.503496
5.59951	-1.58E-11	3.528018	0.1	0.000112939	3.528018
5.39949	-9.8E-12	3.55255	0.0999999	0.000112389	3.55255
5.1995	-1.72E-11	3.577066	0.1000001	0.000111839	3.577066
4.9995	2.04E-11	3.637093	0.1000001	0.000111289	3.637093
4.79948	-1.66E-11	3.661626	0.1	0.000110734	3.661626
4.5995	-1.84E-11	3.686139	0.0999999	0.000110177	3.686139
4.39951	-3.82E-11	3.710686	0.1	0.000109617	3.710686
4.19951	-5E-11	3.735245	0.1000002	0.000109056	3.735245
3.99951	-1.989E-10	3.75976	0.1	0.000108492	3.75976
3.79948	-7.32E-11	3.784278	0.1000001	0.000107929	3.784278
3.59952	-7.87E-11	3.808822	0.1000002	0.000107364	3.808822
3.39951	-7.23E-11	3.83335	0.0999998	0.000106799	3.83335
3.1995	-8.8E-11	3.857869	0.0999999	0.000106234	3.857869
2.99949	-9.97E-11	3.882377	0.1	0.000105666	3.882377
2.79952	-1.059E-10	3.906936	0.1000002	0.000105102	3.906936
2.59951	-9.29E-11	3.931455	0.1000001	0.00010454	3.931455
2.39948	-1.047E-10	3.955993	0.0999997	0.000103974	3.955993
2.19949	-1.179E-10	3.980505	0.0999999	0.000103412	3.980505
1.99951	-1.143E-10	4.005062	0.1	0.000102849	4.005062
1.7995	-1.203E-10	4.029594	0.1000002	0.000102289	4.029594
1.59951	-1.364E-10	4.054145	0.1000001	0.000101731	4.054145
1.39951	-1.269E-10	4.078659	0.0999998	0.00010117	4.078659
1.19952	-7.68E-11	4.138655	0.1000001	0.00010062	4.138655
0.99951	-1.209E-10	4.163244	0.0999998	0.000100066	4.163244
0.79949	-1.372E-10	4.187783	0.1	9.9513E-05	4.187783
0.59951	-1.206E-10	4.212308	0.1000001	9.8961E-05	4.212308
0.39953	-1.43E-10	4.236882	0.1	9.8412E-05	4.236882
0.1995	-1.628E-10	4.261417	0.1	9.7864E-05	4.261417
-0.00051	-1.437E-10	4.285917	0.1	9.732E-05	4.285917
-0.20051	-1.549E-10	4.310452	0.1	9.678E-05	4.310452
-0.4005	-1.751E-10	4.334963	0.1	9.6246E-05	4.334963
-0.60049	-1.831E-10	4.359499	0.0999999	9.5722E-05	4.359499
-0.8005	-1.684E-10	4.384014	0.0999999	9.5206E-05	4.384014
-1.00049	-1.842E-10	4.408571	0.1000001	9.4701E-05	4.408571
-1.20049	-1.935E-10	4.433097	0.1	9.4206E-05	4.433097
-1.40049	-1.937E-10	4.457615	0.1	9.372E-05	4.457615
-1.60049	-1.91E-10	4.482185	0.1000001	9.3239E-05	4.482185
-1.8005	-2.043E-10	4.506722	0.1000001	9.2758E-05	4.506722
-2.0005	-2.07E-10	4.531241	0.1000001	9.228E-05	4.531241
-2.2005	-1.982E-10	4.555755	0.1	9.1801E-05	4.555755
-2.4005	-2.121E-10	4.580269	0.1	9.1324E-05	4.580269
-2.6005	-1.598E-10	4.640451	0.1000001	9.0847E-05	4.640451
-2.80051	-1.936E-10	4.664983	0.0999999	9.0366E-05	4.664983
-3.0005	-1.963E-10	4.689509	0.1000001	8.9885E-05	4.689509
-3.20048	-2.226E-10	4.714036	0.1	8.94E-05	4.714036
-3.40052	-2.054E-10	4.738708	0.0999999	8.892E-05	4.738708
-3.60049	-6.69E-11	4.763241	0.0999999	8.8435E-05	4.763241
-3.80046	-1.909E-10	4.791121	0.100005	8.78712E-05	4.791121
-4.00048	-2.164E-10	4.815709	0.1000049	8.73849E-05	4.815709
-4.20049	-2.347E-10	4.84023	0.1000048	8.68973E-05	4.84023
-4.40049	-2.289E-10	4.864763	0.1000057	8.64088E-05	4.864763
-4.60046	-2.344E-10	4.889277	0.100006	8.59184E-05	4.889277
-4.80048	-2.485E-10	4.91388	0.1000059	8.54259E-05	4.91388
-5.00049	-2.481E-10	4.938392	0.1000054	8.4933E-05	4.938392
-5.2005	-2.434E-10	4.962917	0.100005	8.44381E-05	4.962917
-5.40051	-2.664E-10	4.987429	0.100006	8.39405E-05	4.987429
-5.60049	-2.606E-10	5.011965	0.1000052	8.34429E-05	5.011965
-5.80049	-2.561E-10	5.036487	0.1000056	8.2944E-05	5.036487
-6.00047	-2.687E-10	5.061012	0.100005	8.24417E-05	5.061012
-6.20047	-2.674E-10	5.085519	0.1000061	8.1939E-05	5.085519
-6.40048	-2.048E-10	5.144819	0.1000054	8.14356E-05	5.144819
-6.6005	-4.233E-10	5.169368	0.1000062	8.09298E-05	5.169368
-6.80048	-2.845E-10	5.1939	0.1000054	8.04199E-05	5.1939
-7.00051	-2.741E-10	5.218439	0.1000055	7.99093E-05	5.218439
-7.20048	-2.787E-10	5.243009	0.1000053	7.93972E-05	5.243009
-7.40049	-2.845E-10	5.267535	0.1000051	7.88816E-05	5.267535
-7.6005	-2.95E-10	5.292049	0.1000062	7.83657E-05	5.292049
-7.80048	-2.868E-10	5.316574	0.1000055	7.7846E-05	5.316574
-8.0005	-2.893E-10	5.341097	0.1000049	7.73258E-05	5.341097
-8.20048	-3.114E-10	5.365614	0.1000062	7.68037E-05	5.365614
-8.40049	-2.97E-10	5.390121	0.1000054	7.62777E-05	5.390121
-8.6005	-2.924E-10	5.414736	0.1000061	7.57512E-05	5.414736
-8.80049	-3.122E-10	5.439266	0.1000053	7.5222E-05	5.439266
-9.00046	-3.219E-10	5.463787	0.100005	7.46894E-05	5.463787
-9.20048	-2.942E-10	5.488381	0.1000069	7.41577E-05	5.488381
-9.40049	-3.258E-10	5.51291	0.1000056	7.36231E-05	5.51291
-9.60049	-3.151E-10	5.537451	0.1000061	7.30867E-05	5.537451
-9.80048	-3.243E-10	5.561967	0.1000062	7.25506E-05	5.561967
-10.00049	-3.242E-10	5.586486	0.1000064	7.20107E-05	5.586486
-10.20049	-2.702E-10	5.643657	0.100006	7.14776E-05	5.643657
-10.40048	-2.943E-10	5.668179	0.100005	7.09324E-05	5.668179
-10.60049	-3.215E-10	5.692721	0.100006	7.03868E-05	5.692721
-10.80047	-3.361E-10	5.717242	0.1000072	6.98388E-05	5.717242
-11.00047	-3.108E-10	5.741819	0.1000065	6.92881E-05	5.741819
-11.20048	-3.3E-10	5.766318	0.1000056	6.87341E-05	5.766318
-11.40049	-3.429E-10	5.790851	0.1000061	6.81767E-05	5.790851
-11.6005	-3.3E-10	5.815375	0.1000066	6.76194E-05	5.815375
-11.80049	-3.383E-10	5.839918	0.100007	6.70594E-05	5.839918
-12.00046	-3.414E-10	5.864426	0.1000057	6.64959E-05	5.864426
#scan	iMeasureCycle=2	iMux=0	time=279.822	N=222	LocalTime=22/06/2023 07:49:31
#VGate(V)	IGate(A)	time(s)	VDrain(V)	IDrain(A)	time(s)
-12.00048	-7.13E-11	279.829634	0.1000056	6.65652E-05	279.829634
-11.80051	1E-13	279.854516	0.1000065	6.71317E-05	279.854516
-11.6005	-1.3E-12	279.880108	0.1000073	6.76939E-05	279.880108
-11.4005	2.6E-11	279.904714	0.1000048	6.8254E-05	279.904714
-11.20052	4.94E-11	279.929226	0.1000072	6.88134E-05	279.929226
-11.00048	5.82E-11	279.953754	0.1000071	6.93694E-05	279.953754
-10.8005	7.2E-11	279.978316	0.100006	6.99226E-05	279.978316
-10.6005	7.57E-11	280.002848	0.1000062	7.04745E-05	280.002848
-10.40051	8.75E-11	280.027407	0.1000067	7.10236E-05	280.027407
-10.20049	1.022E-10	280.051951	0.1000062	7.15698E-05	280.051951
-10.0005	8.84E-11	280.076545	0.1000057	7.21139E-05	280.076545
-9.80047	1.075E-10	280.101087	0.1000058	7.26581E-05	280.101087
-9.60051	1.186E-10	280.1256	0.1000058	7.31982E-05	280.1256
-9.40049	1.121E-10	280.150147	0.1000064	7.3739E-05	280.150147
-9.20048	1.252E-10	280.17466	0.1000062	7.42757E-05	280.17466
-9.00049	1.445E-10	280.19918	0.1000058	7.48066E-05	280.19918
-8.80047	1.292E-10	280.22369	0.1000061	7.53351E-05	280.22369
-8.60051	1.393E-10	280.248231	0.1000058	7.58612E-05	280.248231
-8.4005	1.531E-10	280.27274	0.100006	7.63853E-05	280.27274
-8.20048	1.554E-10	280.297266	0.1000058	7.69058E-05	280.297266
-8.0005	1.517E-10	280.32183	0.1000046	7.74253E-05	280.32183
-7.80048	1.6E-10	280.346446	0.1000049	7.79439E-05	280.346446
-7.60051	1.127E-10	280.392772	0.1000052	7.84585E-05	280.392772
-7.40049	1.569E-10	280.417403	0.1000057	7.89745E-05	280.417403
-7.2005	1.775E-10	280.441932	0.1000056	7.94885E-05	280.441932
-7.00048	2.731E-10	280.466463	0.1000056	7.99987E-05	280.466463
-6.80049	2.097E-10	280.491024	0.1000057	8.05096E-05	280.491024
-6.60051	2.026E-10	280.515546	0.1000062	8.10183E-05	280.515546
-6.40049	1.953E-10	280.540063	0.1000058	8.15237E-05	280.540063
-6.20047	1.925E-10	280.564606	0.1000057	8.20288E-05	280.564606
-6.00048	2.06E-10	280.589111	0.1000059	8.25316E-05	280.589111
-5.80049	2.004E-10	280.613627	0.1000054	8.30314E-05	280.613627
-5.6005	2.077E-10	280.638178	0.1000054	8.35312E-05	280.638178
-5.40051	9.82E-11	280.662728	0.1000052	8.40293E-05	280.662728
-5.20049	2.07E-10	280.687233	0.1000047	8.45248E-05	280.687233
-5.0005	2.114E-10	280.711777	0.1000052	8.50196E-05	280.711777
-4.80049	2.065E-10	280.736286	0.1000047	8.55134E-05	280.736286
-4.60049	2.255E-10	280.760833	0.1000048	8.60065E-05	280.760833
-4.4005	2.304E-10	280.785356	0.1000051	8.64967E-05	280.785356
-4.20051	2.225E-10	280.809877	0.100005	8.69856E-05	280.809877
-4.0005	2.356E-10	280.834379	0.1000045	8.7473E-05	280.834379
-3.80051	1.832E-10	280.894464	0.1000048	8.79575E-05	280.894464
-3.60051	2.171E-10	280.919092	0.1000049	8.84444E-05	280.919092
-3.4005	2.262E-10	280.943619	0.1000047	8.89291E-05	280.943619
-3.20051	2.441E-10	280.968141	0.1000041	8.94132E-05	280.968141
-3.00053	2.407E-10	280.992704	0.1000045	8.98961E-05	280.992704
-2.8005	2.314E-10	281.017232	0.1000044	9.03783E-05	281.017232
-2.6005	2.576E-10	281.04177	0.1000042	9.08584E-05	281.04177
-2.40049	2.564E-10	281.066304	0.1000047	9.1341E-05	281.066304
-2.20052	2.449E-10	281.090829	0.1000048	9.18209E-05	281.090829
-2.0005	2.615E-10	281.115342	0.1000039	9.22985E-05	281.115342
-1.8005	2.737E-10	281.13987	0.1000042	9.27776E-05	281.13987
-1.60049	2.593E-10	281.164407	0.1000047	9.32598E-05	281.164407
-1.4005	2.618E-10	281.18891	0.1000041	9.37456E-05	281.18891
-1.20051	2.762E-10	281.21343	0.1000038	9.42378E-05	281.21343
-1.0005	2.888E-10	281.237948	0.1000039	9.474E-05	281.237948
-0.8005	2.734E-10	281.262483	0.1000035	9.52507E-05	281.262483
-0.60051	2.832E-10	281.28701	0.1000044	9.57692E-05	281.28701
-0.40049	3.012E-10	281.311588	0.1000041	9.62987E-05	281.311588
-0.20051	2.883E-10	281.336124	0.1000042	9.68333E-05	281.336124
-0.00051	2.363E-10	281.396118	0.1000035	9.73691E-05	281.396118
0.19947	2.743E-10	281.420729	0.1000041	9.7915E-05	281.420729
0.39951	2.881E-10	281.445268	0.1000037	9.8461E-05	281.445268
0.59949	2.804E-10	281.46978	0.1000038	9.90086E-05	281.46978
0.7995	2.96E-10	281.494357	0.1000035	9.95591E-05	281.494357
0.9995	3.013E-10	281.518873	0.1000041	0.0001001112	281.518873
1.1995	2.93E-10	281.543422	0.1000042	0.0001006636	281.543422
1.39949	3.088E-10	281.567957	0.1000043	0.0001012196	281.567957
1.5995	3.265E-10	281.592488	0.1000033	0.0001017745	281.592488
1.7995	3.082E-10	281.616998	0.1000044	0.0001023316	281.616998
1.99951	3.1E-10	281.641547	0.1000038	0.0001028915	281.641547
2.1995	3.286E-10	281.666068	0.1000034	0.0001034519	281.666068
2.39948	3.261E-10	281.690594	0.1000034	0.0001040139	281.690594
2.5995	3.323E-10	281.715113	0.1000039	0.0001045768	281.715113
2.7995	3.03E-10	281.744677	0.0999999	0.000105216	281.744677
2.99949	3.319E-10	281.769194	0.1	0.00010578	281.769194
3.1995	3.373E-10	281.793711	0.1	0.000106343	281.793711
3.39949	3.43E-10	281.818225	0.1	0.000106906	281.818225
3.5995	3.416E-10	281.842757	0.1000001	0.000107467	281.842757
3.79948	3.168E-10	281.900537	0.1	0.000108024	281.900537
3.99948	3.366E-10	281.925162	0.0999999	0.000108586	281.925162
4.1995	3.338E-10	281.949681	0.0999998	0.000109146	281.949681
4.39947	3.458E-10	281.974448	0.0999998	0.000109703	281.974448
4.59948	3.578E-10	281.99902	0.1000001	0.00011026	281.99902
4.79949	3.504E-10	282.02353	0.0999999	0.000110812	282.02353
4.9995	3.613E-10	282.048063	0.0999999	0.000111363	282.048063
5.19947	1.521E-10	282.072648	0.0999999	0.000111912	282.072648
5.3995	3.566E-10	282.097171	0.1000001	0.000112456	282.097171
5.5995	3.441E-10	282.121681	0.0999999	0.000113	282.121681
5.79949	3.638E-10	282.146204	0.1	0.00011354	282.146204
5.99948	3.762E-10	282.170721	0.1000001	0.000114077	282.170721
6.1995	3.644E-10	282.19526	0.0999998	0.000114608	282.19526
6.39948	3.621E-10	282.219768	0.1	0.000115139	282.219768
6.59951	3.91E-10	282.244302	0.0999998	0.000115668	282.244302
6.79949	3.767E-10	282.26877	0.0999998	0.000116191	282.26877
6.99947	3.777E-10	282.293308	0.1	0.000116711	282.293308
7.19949	3.873E-10	282.317873	0.0999999	0.00011723	282.317873
7.39949	3.826E-10	282.342408	0.1	0.000117745	282.342408
7.59947	3.41E-10	282.399336	0.0999999	0.00011825	282.399336
7.79948	3.682E-10	282.423935	0.1000001	0.000118761	282.423935
7.99947	3.77E-10	282.448478	0.0999999	0.00011927	282.448478
8.1995	3.726E-10	282.473075	0.1	0.000119776	282.473075
8.3995	4.052E-10	282.497653	0.0999998	0.000120278	282.497653
8.59948	3.853E-10	282.522173	0.1000001	0.000120773	282.522173
8.7995	3.882E-10	282.546738	0.0999998	0.000121269	282.546738
8.99948	4.133E-10	282.571262	0.1	0.00012176	282.571262
9.19949	4.09E-10	282.595784	0.0999998	0.000122251	282.595784
9.39949	3.986E-10	282.620293	0.1	0.000122742	282.620293
9.59949	4.133E-10	282.644823	0.1	0.000123231	282.644823
9.79951	4.259E-10	282.66935	0.0999999	0.000123717	282.66935
9.99946	4.126E-10	282.693882	0.0999998	0.0001242	282.693882
9.99949	3.644E-10	282.717219	0.1	0.000124202	282.717219
9.79952	2.791E-10	282.741739	0.0999999	0.00012372	282.741739
9.59948	2.46E-10	282.766247	0.0999999	0.000123233	282.766247
9.39947	2.034E-10	282.790784	0.1000002	0.000122749	282.790784
9.19949	1.875E-10	282.815288	0.1	0.00012226	282.815288
8.99949	1.699E-10	282.839849	0.1	0.00012177	282.839849
8.79949	1.964E-10	282.896651	0.1	0.000121271	282.896651
8.59949	1.383E-10	282.921263	0.1	0.000120768	282.921263
8.3995	1.112E-10	282.945772	0.1	0.000120262	282.945772
8.19947	1.142E-10	282.970281	0.0999999	0.000119753	282.970281
7.99948	1.042E-10	282.994828	0.1	0.000119239	282.994828
7.79949	7.23E-11	283.019346	0.0999998	0.000118725	283.019346
7.5995	6.42E-11	283.043871	0.0999999	0.000118207	283.043871
7.39949	6.39E-11	283.068399	0.1	0.000117688	283.068399
7.1995	6.15E-11	283.09294	0.0999999	0.000117165	283.09294
6.99948	2.6E-11	283.117458	0.1	0.00011664	283.117458
6.7995	2.48E-11	283.141983	0.1000001	0.000116112	283.141983
6.5995	3.26E-11	283.166602	0.1	0.000115581	283.166602
6.39948	1.54E-11	283.191124	0.1	0.00011505	283.191124
6.1995	-4E-12	283.21563	0.1000001	0.000114512	283.21563
5.99948	1.63E-11	283.240149	0.1	0.000113972	283.240149
5.7995	-8.5E-12	283.264676	0.1000002	0.000113432	283.264676
5.5995	1.251E-10	283.289208	0.0999999	0.000112885	283.289208
5.39949	8.4E-12	283.313756	0.0999999	0.000112339	283.313756
5.19952	-1.96E-11	283.338306	0.1	0.000111788	283.338306
4.99949	2.73E-11	283.386597	0.1	0.000111235	283.386597
4.7995	-9.3E-12	283.411162	0.1000003	0.00011068	283.411162
4.5995	-2.37E-11	283.435777	0.0999999	0.000110125	283.435777
4.39951	-9.82E-11	283.460318	0.1	0.000109565	283.460318
4.19949	-6.87E-11	283.486523	0.0999999	0.000109003	283.486523
3.9995	-4.62E-11	283.511078	0.0999999	0.00010844	283.511078
3.79949	-7.69E-11	283.535634	0.1	0.000107876	283.535634
3.5995	-8.4E-11	283.560133	0.0999999	0.00010731	283.560133
3.3995	-7.76E-11	283.584676	0.1000001	0.000106744	283.584676
3.19953	-8.39E-11	283.609202	0.1000001	0.000106178	283.609202
2.99951	-8.71E-11	283.633713	0.1000001	0.000105611	283.633713
2.79949	-9.83E-11	283.658292	0.1	0.000105046	283.658292
2.59951	-9.41E-11	283.682868	0.1	0.000104481	283.682868
2.3995	-1.003E-10	283.707378	0.1	0.000103917	283.707378
2.19951	-1.176E-10	283.731887	0.0999999	0.000103353	283.731887
1.99949	-1.035E-10	283.75651	0.0999999	0.000102792	283.75651
1.79948	-1.258E-10	283.781033	0.0999999	0.000102231	283.781033
1.59949	-1.401E-10	283.805561	0.1	0.000101672	283.805561
1.39951	-1.24E-10	283.830076	0.0999999	0.000101114	283.830076
1.19949	-1.251E-10	283.854612	0.0999999	0.000100559	283.854612
0.9995	-9.43E-11	283.904389	0.1000001	0.000100007	283.904389
0.79948	-1.171E-10	283.929023	0.0999999	9.9455E-05	283.929023
0.59951	-1.186E-10	283.953523	0.0999999	9.8903E-05	283.953523
0.3995	-1.472E-10	283.978072	0.1	9.8353E-05	283.978072
0.1995	-1.595E-10	284.002617	0.1000001	9.7807E-05	284.002617
-0.00049	-1.432E-10	284.027145	0.0999999	9.7263E-05	284.027145
-0.20052	-1.562E-10	284.051661	0.0999998	9.6722E-05	284.051661
-0.40048	-1.759E-10	284.076352	0.1000001	9.6189E-05	284.076352
-0.60049	-1.604E-10	284.10089	0.1	9.5662E-05	284.10089
-0.80049	-1.703E-10	284.125403	0.0999999	9.5148E-05	284.125403
-1.0005	-1.873E-10	284.149935	0.0999999	9.4643E-05	284.149935
-1.20049	-1.873E-10	284.174455	0.0999999	9.4148E-05	284.174455
-1.40051	-1.806E-10	284.199002	0.0999999	9.3662E-05	284.199002
-1.60049	-1.931E-10	284.223517	0.0999998	9.318E-05	284.223517
-1.80051	-2.009E-10	284.248064	0.1000002	9.2699E-05	284.248064
-2.00051	-1.914E-10	284.272576	0.0999999	9.2223E-05	284.272576
-2.20049	-1.917E-10	284.297117	0.1000002	9.1745E-05	284.297117
-2.40051	-2.157E-10	284.321692	0.1	9.1267E-05	284.321692
-2.60048	-2.127E-10	284.346243	0.0999998	9.0787E-05	284.346243
-2.80049	-1.604E-10	284.405917	0.1	9.0308E-05	284.405917
-3.00049	-1.947E-10	284.430531	0.1	8.9827E-05	284.430531
-3.20049	-2.062E-10	284.455074	0.0999999	8.9345E-05	284.455074
-3.4005	-2.069E-10	284.482939	0.1000047	8.87812E-05	284.482939
-3.6005	-2.03E-10	284.507513	0.1000049	8.82976E-05	284.507513
-3.8005	-2.209E-10	284.532021	0.1000042	8.78105E-05	284.532021
-4.00049	-2.223E-10	284.556579	0.1000049	8.73251E-05	284.556579
-4.20051	-2.332E-10	284.581089	0.1000043	8.68363E-05	284.581089
-4.40049	-2.341E-10	284.605642	0.100005	8.63488E-05	284.605642
-4.6005	-2.322E-10	284.630154	0.1000052	8.58582E-05	284.630154
-4.80048	-2.44E-10	284.654755	0.1000053	8.53653E-05	284.654755
-5.00049	-2.393E-10	284.679274	0.1000047	8.48713E-05	284.679274
-5.20049	-1.315E-10	284.703798	0.1000053	8.43775E-05	284.703798
-5.40048	-2.442E-10	284.72831	0.1000054	8.38807E-05	284.72831
-5.60049	-2.297E-10	284.75287	0.1000049	8.33827E-05	284.75287
-5.8005	-2.492E-10	284.777374	0.1000051	8.28817E-05	284.777374
-6.00051	-2.638E-10	284.801909	0.1000053	8.23817E-05	284.801909
-6.20051	-2.592E-10	284.826413	0.1000052	8.1878E-05	284.826413
-6.4005	-2.538E-10	284.850994	0.100006	8.13729E-05	284.850994
-6.60051	-2.095E-10	284.910391	0.1000055	8.08682E-05	284.910391
-6.80049	-2.495E-10	284.935037	0.1000051	8.03583E-05	284.935037
-7.0005	-2.503E-10	284.959579	0.1000053	7.98472E-05	284.959579
-7.20048	-2.618E-10	284.984183	0.1000055	7.93335E-05	284.984183
-7.40049	-2.709E-10	285.008743	0.1000054	7.88192E-05	285.008743
-7.60048	-2.533E-10	285.033262	0.1000057	7.8303E-05	285.033262
-7.80048	-2.731E-10	285.05779	0.1000059	7.77846E-05	285.05779
-8.0005	-2.822E-10	285.082291	0.1000062	7.72632E-05	285.082291
-8.20048	-3.627E-10	285.106805	0.1000054	7.67394E-05	285.106805
-8.40048	-2.94E-10	285.131316	0.1000061	7.62153E-05	285.131316
-8.60049	-2.912E-10	285.155818	0.1000053	7.56873E-05	285.155818
-8.80049	-3.152E-10	285.180335	0.1000056	7.51582E-05	285.180335
-9.00049	-2.946E-10	285.204848	0.1000065	7.46275E-05	285.204848
-9.20048	-2.966E-10	285.229356	0.1000054	7.40942E-05	285.229356
-9.4005	-3.133E-10	285.253879	0.1000055	7.35584E-05	285.253879
-9.6005	-3.177E-10	285.278392	0.1000069	7.30214E-05	285.278392
-9.80047	-3.068E-10	285.302918	0.1000065	7.24857E-05	285.302918
-10.00047	-3.194E-10	285.327504	0.100006	7.19454E-05	285.327504
-10.20049	-3.133E-10	285.352037	0.1000052	7.1404E-05	285.352037
-10.4005	-2.605E-10	285.40922	0.1000065	7.08672E-05	285.40922
-10.6005	-3.005E-10	285.433834	0.1000067	7.03202E-05	285.433834
-10.80049	-2.953E-10	285.458371	0.1000063	6.9771E-05	285.458371
-11.00048	-3.075E-10	285.482883	0.100006	6.92197E-05	285.482883
-11.20049	-3.212E-10	285.507445	0.1000064	6.86652E-05	285.507445
-11.4005	-3.237E-10	285.531965	0.1000061	6.81097E-05	285.531965
-11.60047	-3.065E-10	285.556516	0.1000061	6.75515E-05	285.556516
-11.80049	-3.373E-10	285.581034	0.1000059	6.69897E-05	285.581034
-12.00048	-3.389E-10	285.60557	0.1000061	6.64274E-05	285.60557
#scan	iMeasureCycle=3	iMux=0	time=319.912	N=222	LocalTime=22/06/2023 07:50:11
#VGate(V)	IGate(A)	time(s)	VDrain(V)	IDrain(A)	time(s)
-12.00049	-7E-11	319.919604	0.1000065	6.65511E-05	319.919604
-11.80049	1.249E-10	319.944476	0.1000068	6.71166E-05	319.944476
-11.6005	1.24E-11	319.970169	0.1000075	6.76802E-05	319.970169
-11.40049	3.94E-11	319.994709	0.1000066	6.82401E-05	319.994709
-11.2005	5.55E-11	320.019256	0.1000073	6.87986E-05	320.019256
-11.00049	5.41E-11	320.043801	0.1000066	6.93547E-05	320.043801
-10.8005	7.08E-11	320.068402	0.1000066	6.9908E-05	320.068402
-10.60051	8.2E-11	320.092932	0.100007	7.04593E-05	320.092932
-10.40048	8.67E-11	320.117403	0.1000055	7.10076E-05	320.117403
-10.2005	9.2E-11	320.14192	0.1000075	7.15559E-05	320.14192
-10.00049	1.02E-10	320.166422	0.1000063	7.20995E-05	320.166422
-9.8005	1.201E-10	320.190945	0.1000069	7.26445E-05	320.190945
-9.6005	1.124E-10	320.215445	0.1000064	7.31833E-05	320.215445
-9.40049	1.092E-10	320.239984	0.1000061	7.37238E-05	320.239984
-9.20049	1.404E-10	320.264484	0.1000059	7.426E-05	320.264484
-9.00049	1.359E-10	320.289008	0.1000059	7.47916E-05	320.289008
-8.80049	1.264E-10	320.313522	0.1000058	7.5321E-05	320.313522
-8.60049	1.458E-10	320.338049	0.1000059	7.58445E-05	320.338049
-8.40049	1.511E-10	320.362573	0.1000071	7.63705E-05	320.362573
-8.20049	-1.65E-11	320.387166	0.1000058	7.68913E-05	320.387166
-8.00051	1.376E-10	320.411684	0.1000056	7.74108E-05	320.411684
-7.8005	1.561E-10	320.436232	0.1000063	7.79295E-05	320.436232
-7.60049	1.127E-10	320.482849	0.1000052	7.84426E-05	320.482849
-7.40049	1.548E-10	320.507385	0.1000053	7.89581E-05	320.507385
-7.20048	1.595E-10	320.531909	0.1000052	7.94705E-05	320.531909
-7.00051	1.525E-10	320.556462	0.1000049	7.99817E-05	320.556462
-6.80049	1.698E-10	320.581038	0.1000053	8.04918E-05	320.581038
-6.60048	1.781E-10	320.605596	0.1000049	8.10001E-05	320.605596
-6.40049	1.801E-10	320.630115	0.1000051	8.15065E-05	320.630115
-6.20049	1.876E-10	320.654651	0.1000048	8.20101E-05	320.654651
-6.00049	1.933E-10	320.679166	0.1000048	8.25131E-05	320.679166
-5.8005	1.808E-10	320.703675	0.1000051	8.30143E-05	320.703675
-5.6005	2.019E-10	320.72823	0.1000051	8.35136E-05	320.72823
-5.40048	2.158E-10	320.752754	0.1000055	8.40124E-05	320.752754
-5.20049	2.064E-10	320.777267	0.1000051	8.45091E-05	320.777267
-5.0005	2.002E-10	320.801782	0.1000047	8.50038E-05	320.801782
-4.80049	2.282E-10	320.826298	0.1000041	8.54952E-05	320.826298
-4.60049	2.258E-10	320.85081	0.100005	8.59887E-05	320.85081
-4.40051	2.197E-10	320.875332	0.1000045	8.64786E-05	320.875332
-4.20049	2.123E-10	320.899857	0.1000057	8.69697E-05	320.899857
-4.00051	2.432E-10	320.924368	0.1000051	8.74578E-05	320.924368
-3.80052	1.71E-10	320.984398	0.1000046	8.79405E-05	320.984398
-3.60049	2.045E-10	321.008946	0.1000048	8.8427E-05	321.008946
-3.4005	2.318E-10	321.033461	0.1000042	8.89109E-05	321.033461
-3.20051	2.311E-10	321.058223	0.1000046	8.93959E-05	321.058223
-3.00047	2.294E-10	321.082803	0.1000046	8.98781E-05	321.082803
-2.8005	2.447E-10	321.107326	0.1000045	9.0361E-05	321.107326
-2.60048	2.564E-10	321.131875	0.1000036	9.08412E-05	321.131875
-2.40049	2.496E-10	321.156405	0.1000046	9.13201E-05	321.156405
-2.20049	2.416E-10	321.180936	0.1000044	9.18001E-05	321.180936
-2.0005	2.698E-10	321.205456	0.100005	9.22796E-05	321.205456
-1.80049	2.654E-10	321.229972	0.1000045	9.2759E-05	321.229972
-1.60051	2.64E-10	321.254489	0.1000037	9.32402E-05	321.254489
-1.4005	2.742E-10	321.279035	0.100004	9.37254E-05	321.279035
-1.2005	2.744E-10	321.303559	0.1000045	9.42185E-05	321.303559
-1.00052	2.764E-10	321.328091	0.1000043	9.47177E-05	321.328091
-0.80051	5.156E-10	321.352605	0.1000045	9.52297E-05	321.352605
-0.60048	3.137E-10	321.377156	0.1000047	9.575E-05	321.377156
-0.40048	2.937E-10	321.401729	0.1000051	9.62793E-05	321.401729
-0.20051	2.937E-10	321.426253	0.1000042	9.68129E-05	321.426253
-0.0005	2.485E-10	321.486019	0.1000044	9.73477E-05	321.486019
0.19948	2.794E-10	321.510544	0.1000052	9.78951E-05	321.510544
0.39951	2.895E-10	321.535181	0.1000044	9.84421E-05	321.535181
0.59949	2.945E-10	321.559774	0.1000043	9.899E-05	321.559774
0.7995	3.05E-10	321.584359	0.1000046	9.95412E-05	321.584359
0.99951	3.042E-10	321.608862	0.1000043	0.0001000926	321.608862
1.19948	2.965E-10	321.633406	0.1000043	0.0001006457	321.633406
1.39948	3.25E-10	321.657916	0.1000039	0.0001011989	321.657916
1.59952	3.118E-10	321.682438	0.1000042	0.000101757	321.682438
1.79949	3.104E-10	321.706954	0.1000044	0.0001023149	321.706954
1.99949	3.371E-10	321.731524	0.1000041	0.0001028736	321.731524
2.19949	3.27E-10	321.756046	0.1000042	0.0001034358	321.756046
2.39951	3.159E-10	321.780588	0.1000038	0.0001039973	321.780588
2.59951	2.542E-10	321.80509	0.1000034	0.0001045592	321.80509
2.7995	2.848E-10	321.834778	0.1	0.000105202	321.834778
2.99949	3.191E-10	321.859293	0.0999998	0.000105763	321.859293
3.19948	3.339E-10	321.883815	0.1	0.000106328	321.883815
3.39949	3.257E-10	321.908318	0.0999999	0.000106892	321.908318
3.5995	3.416E-10	321.93284	0.0999999	0.000107454	321.93284
3.79947	2.934E-10	321.990478	0.0999999	0.000108012	321.990478
3.99949	3.145E-10	322.015024	0.0999999	0.000108574	322.015024
4.19949	3.291E-10	322.039551	0.1	0.000109134	322.039551
4.39947	3.507E-10	322.064332	0.1	0.000109693	322.064332
4.59952	3.388E-10	322.088925	0.1	0.000110247	322.088925
4.79949	3.345E-10	322.113432	0.1000001	0.000110802	322.113432
4.99951	3.524E-10	322.138039	0.1	0.000111353	322.138039
5.1995	3.45E-10	322.162545	0.1	0.0001119	322.162545
5.39948	3.615E-10	322.187085	0.0999998	0.000112447	322.187085
5.59949	3.689E-10	322.2116	0.1000001	0.00011299	322.2116
5.79949	3.636E-10	322.236134	0.0999998	0.00011353	322.236134
5.99948	3.674E-10	322.260655	0.1000001	0.000114068	322.260655
6.1995	3.622E-10	322.28518	0.0999999	0.000114601	322.28518
6.39948	3.826E-10	322.309701	0.1000001	0.000115132	322.309701
6.59949	3.778E-10	322.334202	0.1000001	0.000115659	322.334202
6.79949	3.64E-10	322.358716	0.1	0.000116184	322.358716
6.9995	3.854E-10	322.383236	0.0999998	0.000116706	322.383236
7.19948	3.931E-10	322.407804	0.0999999	0.000117224	322.407804
7.39949	3.778E-10	322.432333	0.1	0.00011774	322.432333
7.59948	3.35E-10	322.489153	0.1000002	0.000118248	322.489153
7.79948	3.627E-10	322.513718	0.0999998	0.000118758	322.513718
7.99949	3.733E-10	322.538257	0.1	0.000119267	322.538257
8.1995	3.845E-10	322.562853	0.0999999	0.000119769	322.562853
8.39952	3.924E-10	322.587431	0.1	0.000120273	322.587431
8.59949	3.85E-10	322.611947	0.1	0.000120771	322.611947
8.79952	3.941E-10	322.636508	0.0999999	0.000121268	322.636508
8.99952	4.022E-10	322.661101	0.1000001	0.00012176	322.661101
9.19949	3.966E-10	322.685611	0.0999999	0.00012225	322.685611
9.39948	3.958E-10	322.710124	0.1	0.000122742	322.710124
9.59949	4.15E-10	322.734688	0.1	0.000123229	322.734688
9.79949	4.858E-10	322.759216	0.1	0.000123718	322.759216
9.99948	4.356E-10	322.783725	0.1	0.000124202	322.783725
9.9995	3.742E-10	322.807069	0.0999999	0.0001242	322.807069
9.79951	2.819E-10	322.831607	0.1	0.00012372	322.831607
9.59951	2.391E-10	322.856128	0.1	0.000123236	322.856128
9.3995	2.039E-10	322.880671	0.0999999	0.000122751	322.880671
9.1995	1.834E-10	322.905178	0.1000001	0.000122262	322.905178
8.9995	1.699E-10	322.929706	0.1	0.00012177	322.929706
8.79949	1.91E-10	322.986583	0.1000001	0.000121273	322.986583
8.5995	1.322E-10	323.011195	0.1000001	0.000120771	323.011195
8.39951	1.093E-10	323.035734	0.0999999	0.000120263	323.035734
8.19948	1.074E-10	323.060287	0.0999999	0.000119756	323.060287
7.99949	8.71E-11	323.084871	0.1000001	0.000119244	323.084871
7.7995	7.45E-11	323.109395	0.1000001	0.000118727	323.109395
7.5995	7.05E-11	323.133925	0.0999998	0.000118209	323.133925
7.39951	4.92E-11	323.158449	0.1	0.000117689	323.158449
7.1995	4.5E-11	323.182974	0.1000001	0.000117167	323.182974
6.99949	-1.148E-10	323.20748	0.1000001	0.000116644	323.20748
6.79949	2E-11	323.232014	0.1	0.000116116	323.232014
6.5995	1.01E-11	323.256523	0.1	0.000115586	323.256523
6.39949	-9.5E-12	323.281072	0.0999999	0.000115053	323.281072
6.19951	6.6E-12	323.305591	0.1000002	0.000114516	323.305591
5.99948	2.6E-12	323.330125	0.0999999	0.000113975	323.330125
5.7995	-2.53E-11	323.354722	0.1	0.000113434	323.354722
5.59948	-2.35E-11	323.379242	0.1	0.00011289	323.379242
5.39948	-1.98E-11	323.403836	0.0999997	0.000112343	323.403836
5.19949	-4.33E-11	323.428352	0.1	0.000111793	323.428352
4.99951	2.27E-11	323.476421	0.0999999	0.00011124	323.476421
4.7995	-3.66E-11	323.501016	0.1000001	0.000110687	323.501016
4.5995	-4.25E-11	323.525623	0.1	0.000110126	323.525623
4.39948	-4.42E-11	323.550145	0.1	0.000109567	323.550145
4.19951	-2.57E-11	323.57638	0.0999998	0.000109007	323.57638
3.99949	-6.59E-11	323.600912	0.1	0.000108443	323.600912
3.79949	-8.3E-11	323.625464	0.1	0.000107878	323.625464
3.59952	-6.28E-11	323.650072	0.0999999	0.000107314	323.650072
3.3995	-7.77E-11	323.674591	0.0999999	0.000106748	323.674591
3.19949	-9.9E-11	323.699118	0.0999999	0.000106182	323.699118
2.99951	-9.52E-11	323.72365	0.0999999	0.000105617	323.72365
2.7995	-8.39E-11	323.748171	0.1	0.000105051	323.748171
2.59952	-9.91E-11	323.772779	0.1	0.000104484	323.772779
2.39951	-1.155E-10	323.797317	0.1	0.000103921	323.797317
2.19951	-1.24E-10	323.821832	0.1	0.00010336	323.821832
1.99949	-1.128E-10	323.846356	0.0999999	0.000102797	323.846356
1.79949	-1.182E-10	323.870878	0.1	0.000102237	323.870878
1.59951	-1.332E-10	323.895405	0.0999999	0.000101678	323.895405
1.39952	-1.241E-10	323.91992	0.0999999	0.000101121	323.91992
1.1995	-1.345E-10	323.944451	0.1	0.000100562	323.944451
0.9995	-9.01E-11	323.98986	0.0999998	0.000100012	323.98986
0.7995	-1.349E-10	324.014476	0.1	9.946E-05	324.014476
0.59951	-1.348E-10	324.039003	0.1000001	9.8908E-05	324.039003
0.39952	-1.467E-10	324.063575	0.0999999	9.8358E-05	324.063575
0.1995	-1.535E-10	324.088142	0.1000002	9.7812E-05	324.088142
-0.00049	-1.512E-10	324.112666	0.0999999	9.7268E-05	324.112666
-0.20048	-1.534E-10	324.137175	0.0999999	9.6728E-05	324.137175
-0.40047	-1.737E-10	324.161712	0.1	9.6195E-05	324.161712
-0.60047	-8.14E-11	324.186227	0.0999998	9.5669E-05	324.186227
-0.8005	-1.442E-10	324.210748	0.0999998	9.5154E-05	324.210748
-1.00048	-1.701E-10	324.235269	0.1000002	9.4648E-05	324.235269
-1.2005	-1.846E-10	324.259805	0.1000001	9.4155E-05	324.259805
-1.40049	-1.904E-10	324.28433	0.0999999	9.3667E-05	324.28433
-1.6005	-1.697E-10	324.308874	0.1	9.3187E-05	324.308874
-1.80047	-1.925E-10	324.333365	0.1	9.2708E-05	324.333365
-2.00049	-2.058E-10	324.357898	0.1	9.2231E-05	324.357898
-2.2005	-1.959E-10	324.382414	0.0999999	9.1752E-05	324.382414
-2.4005	-1.973E-10	324.407007	0.0999999	9.1273E-05	324.407007
-2.6005	-2.124E-10	324.431537	0.0999999	9.0794E-05	324.431537
-2.80047	-1.538E-10	324.494035	0.1	9.0317E-05	324.494035
-3.0005	-1.785E-10	324.518634	0.1	8.9835E-05	324.518634
-3.20051	-1.937E-10	324.543196	0.1000001	8.9351E-05	324.543196
-3.40049	-2.095E-10	324.567817	0.0999999	8.887E-05	324.567817
-3.60049	-2.166E-10	324.592415	0.0999999	8.8384E-05	324.592415
-3.80049	-3.126E-10	324.616926	0.1	8.7898E-05	324.616926
-4.00049	-2.011E-10	324.644813	0.1000051	8.73313E-05	324.644813
-4.20048	-2.283E-10	324.669427	0.100005	8.68453E-05	324.669427
-4.40051	-2.531E-10	324.693942	0.1000054	8.63559E-05	324.693942
-4.60048	-2.423E-10	324.718493	0.1000051	8.58667E-05	324.718493
-4.80046	-2.379E-10	324.743063	0.1000051	8.53743E-05	324.743063
-5.00047	-2.51E-10	324.767631	0.1000042	8.48812E-05	324.767631
-5.20048	-2.522E-10	324.792224	0.1000047	8.43868E-05	324.792224
-5.40049	-2.511E-10	324.816735	0.1000045	8.38888E-05	324.816735
-5.60051	-2.556E-10	324.84124	0.1000047	8.3392E-05	324.84124
-5.80047	-2.588E-10	324.865744	0.100005	8.28926E-05	324.865744
-6.00048	-2.608E-10	324.89027	0.1000052	8.23913E-05	324.89027
-6.2005	-2.554E-10	324.91478	0.1000051	8.18891E-05	324.91478
-6.40049	-2.71E-10	324.939296	0.1000054	8.13836E-05	324.939296
-6.6005	-2.197E-10	325.000374	0.1000048	8.0879E-05	325.000374
-6.80047	-2.398E-10	325.024924	0.1000046	8.03696E-05	325.024924
-7.00049	-2.472E-10	325.049453	0.1000047	7.98587E-05	325.049453
-7.20049	-2.677E-10	325.074102	0.100005	7.93461E-05	325.074102
-7.40048	-2.747E-10	325.098679	0.1000049	7.88316E-05	325.098679
-7.60048	-2.662E-10	325.123191	0.1000056	7.83155E-05	325.123191
-7.80049	-2.839E-10	325.147742	0.1000047	7.77954E-05	325.147742
-8.00049	-2.726E-10	325.172215	0.1000059	7.72753E-05	325.172215
-8.20049	-2.816E-10	325.196746	0.1000057	7.67525E-05	325.196746
-8.4005	-2.936E-10	325.221258	0.1000057	7.62274E-05	325.221258
-8.60047	-2.929E-10	325.245781	0.1000054	7.57003E-05	325.245781
-8.8005	-2.908E-10	325.270297	0.1000061	7.5172E-05	325.270297
-9.00049	-2.997E-10	325.294822	0.1000054	7.46392E-05	325.294822
-9.20046	-2.986E-10	325.319345	0.1000056	7.41054E-05	325.319345
-9.40047	-3.089E-10	325.343881	0.1000064	7.35708E-05	325.343881
-9.6005	-2.869E-10	325.368395	0.1000059	7.30335E-05	325.368395
-9.80045	-3.003E-10	325.392952	0.1000043	7.24972E-05	325.392952
-10.00048	-3.257E-10	325.417516	0.1000062	7.19586E-05	325.417516
-10.20049	-3.141E-10	325.442041	0.1000059	7.14178E-05	325.442041
-10.40048	-2.656E-10	325.499143	0.1000069	7.0881E-05	325.499143
-10.6005	-2.981E-10	325.523714	0.100006	7.03343E-05	325.523714
-10.80049	-3.073E-10	325.54824	0.1000061	6.97853E-05	325.54824
-11.00048	-3.061E-10	325.572755	0.1000062	6.92348E-05	325.572755
-11.20051	-2.703E-10	325.597329	0.1000073	6.86826E-05	325.597329
-11.40049	-3.111E-10	325.621843	0.100007	6.81255E-05	325.621843
-11.60049	-3.128E-10	325.646379	0.100006	6.75668E-05	325.646379
-11.80048	-3.207E-10	325.670881	0.1000061	6.70061E-05	325.670881
-12.00048	-3.274E-10	325.69542	0.1000062	6.64438E-05	325.69542
