#scan	iMeasureCycle=1	iMux=0	time=0.038	N=222	LocalTime=22/06/2023 03:14:49
#VGate(V)	IGate(A)	time(s)	VDrain(V)	IDrain(A)	time(s)
-12.00049	-3.1983E-09	0.061285	0.100005	5.77833E-05	0.061285
-11.80052	-3.0351E-09	0.086167	0.100006	5.8379E-05	0.086167
-11.60052	-1.3007E-09	0.110796	0.100005	5.89728E-05	0.110796
-11.4005	-5.395E-10	0.135312	0.100006	5.95639E-05	0.135312
-11.20049	-3.475E-10	0.159848	0.100006	6.01527E-05	0.159848
-11.00048	-2.081E-10	0.184364	0.1000054	6.07393E-05	0.184364
-10.80051	-1.499E-10	0.208956	0.100006	6.13242E-05	0.208956
-10.60049	-1.067E-10	0.233483	0.1000072	6.19075E-05	0.233483
-10.4005	-6.12E-11	0.257994	0.1000063	6.24875E-05	0.257994
-10.20049	-4.7E-11	0.282622	0.1000062	6.30668E-05	0.282622
-10.0005	-2.22E-11	0.307139	0.100006	6.3644E-05	0.307139
-9.8005	8.2E-12	0.331673	0.1000061	6.42189E-05	0.331673
-9.60049	1.69E-11	0.356187	0.1000059	6.47918E-05	0.356187
-9.40049	2.45E-11	0.380722	0.1000061	6.53635E-05	0.380722
-9.20048	3.85E-11	0.405236	0.1000064	6.59334E-05	0.405236
-9.0005	6.17E-11	0.429786	0.1000059	6.64959E-05	0.429786
-8.80049	6.48E-11	0.454302	0.1000063	6.70597E-05	0.454302
-8.6005	1.88E-10	0.478829	0.100006	6.76175E-05	0.478829
-8.40049	1.108E-10	0.503484	0.1000062	6.81746E-05	0.503484
-8.20049	1.116E-10	0.528027	0.1000058	6.87287E-05	0.528027
-8.00051	1.095E-10	0.552544	0.1000059	6.92834E-05	0.552544
-7.80049	1.217E-10	0.577098	0.1000066	6.98333E-05	0.577098
-7.60051	7.49E-11	0.624936	0.1000064	7.0379E-05	0.624936
-7.40048	1.216E-10	0.649467	0.100006	7.09274E-05	0.649467
-7.2005	1.356E-10	0.67402	0.1000057	7.14739E-05	0.67402
-7.00049	1.442E-10	0.698529	0.1000062	7.20188E-05	0.698529
-6.80048	1.382E-10	0.72312	0.1000066	7.2562E-05	0.72312
-6.60048	1.586E-10	0.747641	0.1000054	7.31018E-05	0.747641
-6.40049	1.663E-10	0.772196	0.1000067	7.36424E-05	0.772196
-6.20051	1.6E-10	0.796715	0.1000064	7.41787E-05	0.796715
-6.00048	1.589E-10	0.821241	0.1000057	7.47138E-05	0.821241
-5.80049	1.879E-10	0.845754	0.1000057	7.52471E-05	0.845754
-5.60049	1.796E-10	0.870278	0.1000061	7.578E-05	0.870278
-5.40049	1.798E-10	0.894786	0.1000062	7.63112E-05	0.894786
-5.20048	8.07E-11	0.9194	0.1000058	7.68382E-05	0.9194
-5.00049	1.756E-10	0.943915	0.1000052	7.73651E-05	0.943915
-4.80049	1.914E-10	0.968538	0.1000051	7.78912E-05	0.968538
-4.6005	2.012E-10	0.993046	0.1000047	7.84162E-05	0.993046
-4.4005	2.065E-10	1.017646	0.1000055	7.89398E-05	1.017646
-4.2005	2.182E-10	1.04216	0.100005	7.9461E-05	1.04216
-4.00049	2.017E-10	1.066936	0.1000045	7.99817E-05	1.066936
-3.80051	1.711E-10	1.126405	0.100005	8.0497E-05	1.126405
-3.60048	1.943E-10	1.150924	0.1000049	8.10164E-05	1.150924
-3.4005	2.109E-10	1.175438	0.1000048	8.15353E-05	1.175438
-3.20051	2.324E-10	1.19996	0.1000044	8.20527E-05	1.19996
-3.00048	2.306E-10	1.224543	0.100005	8.25701E-05	1.224543
-2.8005	2.308E-10	1.249145	0.1000053	8.30845E-05	1.249145
-2.60047	2.327E-10	1.273693	0.1000047	8.35995E-05	1.273693
-2.4005	2.642E-10	1.298291	0.100005	8.41135E-05	1.298291
-2.20049	2.516E-10	1.322829	0.1000051	8.46259E-05	1.322829
-2.00049	2.471E-10	1.347345	0.1000047	8.51372E-05	1.347345
-1.8005	2.734E-10	1.371869	0.1000051	8.56494E-05	1.371869
-1.60049	2.671E-10	1.396381	0.1000053	8.61632E-05	1.396381
-1.40049	2.628E-10	1.421008	0.1000047	8.66768E-05	1.421008
-1.2005	2.787E-10	1.445529	0.1000048	8.71978E-05	1.445529
-1.00052	2.826E-10	1.47006	0.1000046	8.77257E-05	1.47006
-0.80049	2.895E-10	1.494578	0.1000046	8.82655E-05	1.494578
-0.60047	2.815E-10	1.519159	0.1000046	8.88161E-05	1.519159
-0.40051	2.987E-10	1.543687	0.1000045	8.93762E-05	1.543687
-0.2005	3.076E-10	1.568444	0.1000041	8.99456E-05	1.568444
-0.0005	2.402E-10	1.628195	0.1000049	9.05157E-05	1.628195
0.19951	2.899E-10	1.652722	0.1000044	9.10984E-05	1.652722
0.39952	2.899E-10	1.677277	0.1000049	9.16846E-05	1.677277
0.5995	2.989E-10	1.701786	0.1000054	9.22726E-05	1.701786
0.79948	2.975E-10	1.726376	0.1000043	9.28621E-05	1.726376
0.99948	3.181E-10	1.750895	0.1000043	9.34532E-05	1.750895
1.19951	3.173E-10	1.775403	0.1000044	9.40487E-05	1.775403
1.39948	3.191E-10	1.799936	0.1000041	9.46441E-05	1.799936
1.5995	3.312E-10	1.824455	0.1000041	9.52425E-05	1.824455
1.79951	3.404E-10	1.848973	0.100004	9.58431E-05	1.848973
1.9995	3.281E-10	1.873477	0.1000038	9.64453E-05	1.873477
2.19949	4.102E-10	1.89799	0.1000041	9.70483E-05	1.89799
2.39952	3.636E-10	1.922503	0.1000053	9.76525E-05	1.922503
2.59951	3.516E-10	1.947025	0.1000045	9.82592E-05	1.947025
2.79951	3.634E-10	1.971628	0.1000052	9.88654E-05	1.971628
2.9995	3.738E-10	1.996161	0.1000043	9.94706E-05	1.996161
3.19949	3.661E-10	2.020736	0.1000044	0.0001000777	2.020736
3.39951	3.605E-10	2.045348	0.1000043	0.0001006839	2.045348
3.59948	3.567E-10	2.070123	0.100004	0.000101289	2.070123
3.79947	3.173E-10	2.129386	0.1000042	0.0001018868	2.129386
3.99951	3.422E-10	2.153923	0.1000043	0.0001024901	2.153923
4.19948	3.601E-10	2.178449	0.1000041	0.0001030923	2.178449
4.39949	3.675E-10	2.202968	0.1000037	0.0001036929	2.202968
4.59951	3.722E-10	2.227554	0.1000043	0.0001042906	2.227554
4.79949	3.528E-10	2.257112	0.0999998	0.00010496	2.257112
4.99948	3.682E-10	2.281657	0.0999999	0.000105551	2.281657
5.19949	3.773E-10	2.306263	0.1	0.000106141	2.306263
5.39949	1.67E-10	2.330865	0.1000002	0.000106726	2.330865
5.59948	3.601E-10	2.35539	0.0999999	0.000107309	2.35539
5.79949	3.779E-10	2.379915	0.1	0.000107888	2.379915
5.99946	3.83E-10	2.404431	0.0999998	0.000108462	2.404431
6.19948	3.915E-10	2.42896	0.1	0.000109034	2.42896
6.39949	3.924E-10	2.453482	0.0999998	0.000109601	2.453482
6.59951	3.895E-10	2.478006	0.1000001	0.000110168	2.478006
6.7995	4.197E-10	2.502527	0.1	0.000110729	2.502527
6.99947	4.037E-10	2.527098	0.1000002	0.000111287	2.527098
7.19949	3.912E-10	2.55162	0.1000001	0.000111843	2.55162
7.3995	4.153E-10	2.576154	0.1000003	0.000112395	2.576154
7.59951	3.54E-10	2.633904	0.1000001	0.000112937	2.633904
7.7995	3.938E-10	2.658439	0.1	0.000113481	2.658439
7.99951	4.037E-10	2.682954	0.1	0.000114023	2.682954
8.1995	4.146E-10	2.707463	0.1	0.000114565	2.707463
8.39949	4.001E-10	2.732045	0.0999998	0.0001151	2.732045
8.59947	4.367E-10	2.756566	0.0999999	0.00011563	2.756566
8.79949	4.278E-10	2.781093	0.0999999	0.000116159	2.781093
8.9995	4.121E-10	2.805594	0.1000001	0.000116684	2.805594
9.19949	4.294E-10	2.830121	0.0999999	0.000117207	2.830121
9.3995	4.429E-10	2.854647	0.0999999	0.000117732	2.854647
9.5995	4.252E-10	2.879165	0.1000001	0.000118252	2.879165
9.79947	4.307E-10	2.903679	0.0999999	0.00011877	2.903679
9.99947	4.469E-10	2.928214	0.0999999	0.000119284	2.928214
9.99951	3.756E-10	2.951629	0.0999999	0.000119284	2.951629
9.7995	2.848E-10	2.97625	0.1	0.000118769	2.97625
9.59951	2.505E-10	3.000769	0.1	0.000118254	3.000769
9.3995	2.317E-10	3.025351	0.0999999	0.000117737	3.025351
9.19948	1.929E-10	3.049873	0.0999999	0.000117213	3.049873
8.9995	1.758E-10	3.074438	0.0999997	0.000116688	3.074438
8.7995	1.943E-10	3.132517	0.0999999	0.000116155	3.132517
8.59952	1.503E-10	3.157147	0.0999999	0.000115615	3.157147
8.39951	1.411E-10	3.181688	0.0999999	0.000115076	3.181688
8.19948	1.12E-10	3.206212	0.1000001	0.000114532	3.206212
7.99949	1.072E-10	3.230811	0.1000001	0.000113983	3.230811
7.79951	9.36E-11	3.255334	0.1000003	0.000113433	3.255334
7.59949	8.26E-11	3.279872	0.0999998	0.000112879	3.279872
7.39951	1.967E-10	3.304439	0.0999998	0.000112323	3.304439
7.1995	6.87E-11	3.328955	0.1000001	0.000111763	3.328955
6.99947	7.5E-11	3.35347	0.1000001	0.0001112	3.35347
6.79953	5.04E-11	3.37799	0.1	0.000110636	3.37799
6.59951	2.93E-11	3.402521	0.1	0.000110068	3.402521
6.39948	3.09E-11	3.427037	0.1	0.000109495	3.427037
6.19952	2.86E-11	3.451547	0.1000002	0.000108921	3.451547
5.99949	6.8E-12	3.476073	0.0999998	0.000108343	3.476073
5.7995	-1.8E-12	3.500579	0.1000001	0.000107762	3.500579
5.5995	7E-12	3.525156	0.1	0.000107178	3.525156
5.39951	-1.11E-11	3.549664	0.1	0.000106589	3.549664
5.1995	-2.12E-11	3.574448	0.0999999	0.000105998	3.574448
4.9995	3.6E-11	3.634165	0.1000003	0.000105407	3.634165
4.79951	-5.9E-12	3.658829	0.1	0.000104807	3.658829
4.59949	-2.75E-11	3.683348	0.0999998	0.000104209	3.683348
4.3995	-2.22E-11	3.707861	0.0999997	0.000103606	3.707861
4.1995	-4.37E-11	3.732445	0.1	0.000103003	3.732445
3.9995	-1.749E-10	3.756973	0.1000001	0.000102396	3.756973
3.79951	-8.12E-11	3.781494	0.1000003	0.000101788	3.781494
3.59951	-6.76E-11	3.805999	0.0999999	0.000101179	3.805999
3.3995	-7.57E-11	3.830509	0.1000001	0.000100569	3.830509
3.1995	-9.37E-11	3.855028	0.0999999	9.9961E-05	3.855028
2.99951	-9.2E-11	3.879557	0.0999999	9.935E-05	3.879557
2.79951	-8.58E-11	3.90408	0.0999999	9.8739E-05	3.90408
2.5995	-1.081E-10	3.928596	0.1000001	9.8129E-05	3.928596
2.39951	-1.109E-10	3.953122	0.1	9.752E-05	3.953122
2.19953	-1.009E-10	3.977729	0.0999999	9.6914E-05	3.977729
1.9995	-1.208E-10	4.002264	0.0999999	9.6307E-05	4.002264
1.7995	-1.23E-10	4.026842	0.1000001	9.5704E-05	4.026842
1.59952	-1.246E-10	4.051381	0.1	9.5103E-05	4.051381
1.39948	-1.338E-10	4.076189	0.1000001	9.4502E-05	4.076189
1.19951	-8.7E-11	4.135887	0.0999998	9.3908E-05	4.135887
0.9995	-1.143E-10	4.16041	0.0999999	9.3311E-05	4.16041
0.79949	-1.297E-10	4.184934	0.0999999	9.272E-05	4.184934
0.59951	-1.445E-10	4.209456	0.1000001	9.2126E-05	4.209456
0.39954	-1.496E-10	4.234032	0.1	9.1536E-05	4.234032
0.19951	-1.419E-10	4.258563	0.0999999	9.0949E-05	4.258563
-0.00047	-1.532E-10	4.283085	0.1000001	9.0366E-05	4.283085
-0.20051	-1.732E-10	4.307662	0.0999999	8.9791E-05	4.307662
-0.40049	-1.745E-10	4.332168	0.0999999	8.9225E-05	4.332168
-0.60047	-1.649E-10	4.356796	0.0999999	8.8669E-05	4.356796
-0.8005	-1.898E-10	4.381325	0.0999999	8.8126E-05	4.381325
-1.0005	-1.983E-10	4.405878	0.0999998	8.7592E-05	4.405878
-1.2005	-1.737E-10	4.433725	0.100004	8.69913E-05	4.433725
-1.40047	-1.864E-10	4.45824	0.1000047	8.64785E-05	4.45824
-1.60049	-1.906E-10	4.482782	0.1000047	8.59652E-05	4.482782
-1.80051	-2.064E-10	4.507288	0.1000047	8.54529E-05	4.507288
-2.00049	-3.29E-10	4.531871	0.1000052	8.49425E-05	4.531871
-2.20047	-1.757E-10	4.556339	0.1000063	8.44329E-05	4.556339
-2.40047	-2.171E-10	4.580896	0.100006	8.39203E-05	4.580896
-2.60042	-1.681E-10	4.640572	0.100006	8.34099E-05	4.640572
-2.80044	-1.986E-10	4.66513	0.1000061	8.28957E-05	4.66513
-3.00044	-2.064E-10	4.689646	0.100006	8.23809E-05	4.689646
-3.20043	-2.23E-10	4.714182	0.1000062	8.18641E-05	4.714182
-3.40046	-2.238E-10	4.738747	0.1000057	8.1347E-05	4.738747
-3.60048	-1.52E-10	4.763304	0.100006	8.08291E-05	4.763304
-3.80047	-2.358E-10	4.787821	0.1000056	8.03127E-05	4.787821
-4.00048	-2.376E-10	4.81237	0.1000056	7.97934E-05	4.81237
-4.20049	-2.364E-10	4.836881	0.1000049	7.92713E-05	4.836881
-4.40049	-2.5E-10	4.861416	0.1000044	7.87493E-05	4.861416
-4.6005	-2.539E-10	4.885933	0.1000049	7.82259E-05	4.885933
-4.80046	-2.391E-10	4.910463	0.1000049	7.77004E-05	4.910463
-5.0005	-1.44E-10	4.934965	0.1000056	7.71734E-05	4.934965
-5.20049	-2.706E-10	4.959539	0.100006	7.66465E-05	4.959539
-5.4005	-3.09E-10	4.984153	0.1000047	7.61164E-05	4.984153
-5.60049	-2.607E-10	5.008667	0.1000044	7.55841E-05	5.008667
-5.80049	-2.702E-10	5.033241	0.1000059	7.50513E-05	5.033241
-6.00048	-2.849E-10	5.057747	0.100005	7.45156E-05	5.057747
-6.20048	-2.697E-10	5.082303	0.1000052	7.39795E-05	5.082303
-6.40047	-2.381E-10	5.139157	0.1000051	7.34435E-05	5.139157
-6.60049	-2.465E-10	5.163698	0.1000057	7.29026E-05	5.163698
-6.80048	-2.669E-10	5.18821	0.1000052	7.23602E-05	5.18821
-7.00051	-2.748E-10	5.212752	0.1000052	7.18159E-05	5.212752
-7.20049	-2.842E-10	5.237327	0.1000059	7.1269E-05	5.237327
-7.40046	-2.809E-10	5.261857	0.1000063	7.07216E-05	5.261857
-7.6005	-2.897E-10	5.286379	0.1000051	7.01702E-05	5.286379
-7.80046	-3.018E-10	5.31087	0.1000064	6.96191E-05	5.31087
-8.00049	-2.955E-10	5.335391	0.1000056	6.90654E-05	5.335391
-8.20048	-2.997E-10	5.359924	0.100006	6.8508E-05	5.359924
-8.40047	-3.076E-10	5.384441	0.1000066	6.79506E-05	5.384441
-8.60047	-3.047E-10	5.408961	0.1000048	6.73894E-05	5.408961
-8.80049	-3.061E-10	5.433483	0.1000062	6.68287E-05	5.433483
-9.0005	-3.185E-10	5.458006	0.1000058	6.62644E-05	5.458006
-9.20049	-3.188E-10	5.482625	0.1000057	6.56981E-05	5.482625
-9.40049	-3.091E-10	5.507138	0.1000059	6.51303E-05	5.507138
-9.60051	-3.268E-10	5.531736	0.100006	6.45616E-05	5.531736
-9.80048	-3.293E-10	5.556254	0.1000061	6.39928E-05	5.556254
-10.00048	-3.264E-10	5.581108	0.100007	6.34208E-05	5.581108
-10.20048	-2.725E-10	5.640767	0.100006	6.28558E-05	5.640767
-10.40049	-3.179E-10	5.665379	0.1000054	6.22796E-05	5.665379
-10.60049	-3.149E-10	5.689905	0.1000063	6.17015E-05	5.689905
-10.80048	-3.117E-10	5.714424	0.1000048	6.11217E-05	5.714424
-11.00048	-3.416E-10	5.738992	0.1000061	6.05404E-05	5.738992
-11.20052	-3.425E-10	5.763497	0.1000061	5.99572E-05	5.763497
-11.40049	-3.345E-10	5.788015	0.100006	5.93716E-05	5.788015
-11.6005	-3.387E-10	5.812536	0.1000046	5.87833E-05	5.812536
-11.80047	-3.467E-10	5.837034	0.1000054	5.81947E-05	5.837034
-12.00047	-3.521E-10	5.861537	0.1000062	5.76039E-05	5.861537
#scan	iMeasureCycle=2	iMux=0	time=279.685	N=222	LocalTime=22/06/2023 03:19:29
#VGate(V)	IGate(A)	time(s)	VDrain(V)	IDrain(A)	time(s)
-12.00048	-8.32E-11	279.692612	0.1000065	5.76404E-05	279.692612
-11.8005	-2.93E-11	279.717481	0.100007	5.82344E-05	279.717481
-11.6005	5.6E-12	279.743168	0.1000059	5.88254E-05	279.743168
-11.40048	2.99E-11	279.76769	0.1000066	5.94156E-05	279.76769
-11.2005	4.73E-11	279.792219	0.1000057	6.0004E-05	279.792219
-11.00048	6.4E-12	279.81674	0.1000052	6.0591E-05	279.81674
-10.8005	1.88E-11	279.841324	0.1000058	6.11742E-05	279.841324
-10.60049	7.66E-11	279.865853	0.1000063	6.17574E-05	279.865853
-10.4005	6.38E-11	279.890381	0.1000051	6.23369E-05	279.890381
-10.2005	7.46E-11	279.91496	0.1000059	6.29163E-05	279.91496
-10.00049	1.089E-10	279.939475	0.1000054	6.34928E-05	279.939475
-9.80048	9.95E-11	279.96409	0.1000065	6.40694E-05	279.96409
-9.60051	9.84E-11	279.988615	0.1000063	6.46413E-05	279.988615
-9.4005	1.26E-10	280.013154	0.1000063	6.52138E-05	280.013154
-9.2005	1.183E-10	280.037751	0.1000056	6.57822E-05	280.037751
-9.00049	1.283E-10	280.062294	0.1000052	6.63464E-05	280.062294
-8.8005	1.429E-10	280.086751	0.1000052	6.69101E-05	280.086751
-8.60049	1.35E-10	280.111279	0.1000052	6.7468E-05	280.111279
-8.40051	1.409E-10	280.135791	0.100005	6.80257E-05	280.135791
-8.2005	1.455E-10	280.160326	0.1000057	6.85818E-05	280.160326
-8.00049	1.669E-10	280.184848	0.100006	6.91354E-05	280.184848
-7.80048	1.62E-10	280.20939	0.1000057	6.96877E-05	280.20939
-7.60049	1.144E-10	280.255982	0.1000046	7.02339E-05	280.255982
-7.40049	1.521E-10	280.280536	0.1000052	7.0784E-05	280.280536
-7.2005	1.637E-10	280.30505	0.1000049	7.13298E-05	280.30505
-7.0005	1.853E-10	280.329571	0.1000062	7.18773E-05	280.329571
-6.80051	1.673E-10	280.354223	0.1000051	7.24206E-05	280.354223
-6.60051	1.706E-10	280.378873	0.1000066	7.2962E-05	280.378873
-6.40049	2.031E-10	280.403463	0.1000056	7.35022E-05	280.403463
-6.20048	2.043E-10	280.427974	0.1000054	7.404E-05	280.427974
-6.00052	1.856E-10	280.452517	0.1000051	7.45762E-05	280.452517
-5.80048	1.899E-10	280.476992	0.1000049	7.51108E-05	280.476992
-5.60048	2.136E-10	280.501518	0.1000048	7.56434E-05	280.501518
-5.4005	2.184E-10	280.526042	0.1000054	7.61755E-05	280.526042
-5.20048	2.076E-10	280.550574	0.1000049	7.6704E-05	280.550574
-5.00049	2.121E-10	280.575089	0.1000052	7.7232E-05	280.575089
-4.8005	2.314E-10	280.599621	0.1000043	7.77592E-05	280.599621
-4.60049	2.364E-10	280.624127	0.1000059	7.82851E-05	280.624127
-4.40051	2.243E-10	280.648661	0.1000036	7.88069E-05	280.648661
-4.2005	2.43E-10	280.673182	0.1000052	7.93304E-05	280.673182
-4.00052	2.384E-10	280.697802	0.1000041	7.98502E-05	280.697802
-3.80053	1.788E-10	280.757708	0.1000035	8.03672E-05	280.757708
-3.6005	2.303E-10	280.782245	0.1000048	8.08874E-05	280.782245
-3.40049	2.421E-10	280.806762	0.1000049	8.14057E-05	280.806762
-3.20049	3.404E-10	280.831282	0.1000052	8.19222E-05	280.831282
-3.0005	2.588E-10	280.855854	0.1000063	8.24407E-05	280.855854
-2.80049	2.633E-10	280.880426	0.1000058	8.29545E-05	280.880426
-2.6005	2.68E-10	280.905003	0.1000051	8.34686E-05	280.905003
-2.40051	2.611E-10	280.929516	0.1000059	8.39831E-05	280.929516
-2.20049	2.66E-10	280.95408	0.1000053	8.44967E-05	280.95408
-2.0005	2.725E-10	280.978596	0.1000047	8.50089E-05	280.978596
-1.8005	2.769E-10	281.003136	0.1000053	8.55221E-05	281.003136
-1.60048	2.818E-10	281.027738	0.1000057	8.60343E-05	281.027738
-1.4005	2.875E-10	281.052281	0.1000052	8.65502E-05	281.052281
-1.20048	2.797E-10	281.076804	0.1000052	8.70712E-05	281.076804
-1.00051	2.858E-10	281.101349	0.1000058	8.75991E-05	281.101349
-0.80053	3.12E-10	281.12586	0.1000048	8.8138E-05	281.12586
-0.60051	2.945E-10	281.150405	0.1000056	8.86886E-05	281.150405
-0.4005	2.806E-10	281.174919	0.1000048	8.92483E-05	281.174919
-0.20048	3.15E-10	281.199463	0.1000056	8.98193E-05	281.199463
-0.0005	2.16E-10	281.259454	0.100005	9.03897E-05	281.259454
0.19949	2.739E-10	281.283969	0.1000047	9.09742E-05	281.283969
0.39952	2.832E-10	281.308497	0.1000043	9.15604E-05	281.308497
0.59951	3.031E-10	281.33301	0.1000047	9.21502E-05	281.33301
0.79948	2.914E-10	281.357676	0.1000041	9.27414E-05	281.357676
0.99949	2.952E-10	281.382211	0.1000041	9.33337E-05	281.382211
1.19952	3.269E-10	281.40681	0.1000043	9.39299E-05	281.40681
1.39949	3.069E-10	281.431327	0.1000039	9.45262E-05	281.431327
1.59949	3.118E-10	281.455872	0.1000039	9.51266E-05	281.455872
1.79947	3.238E-10	281.480404	0.1000049	9.57268E-05	281.480404
1.9995	3.324E-10	281.504922	0.1000038	9.63285E-05	281.504922
2.19952	3.326E-10	281.529442	0.100004	9.69337E-05	281.529442
2.39951	3.154E-10	281.553953	0.1000035	9.7536E-05	281.553953
2.5995	3.446E-10	281.57849	0.1000046	9.81436E-05	281.57849
2.7995	3.51E-10	281.603012	0.1000035	9.87496E-05	281.603012
2.9995	3.306E-10	281.627514	0.1000035	9.9357E-05	281.627514
3.19951	3.617E-10	281.652039	0.1000041	9.99659E-05	281.652039
3.39949	3.475E-10	281.676551	0.1000041	0.0001005722	281.676551
3.5995	3.449E-10	281.701172	0.1000036	0.0001011793	281.701172
3.79951	3.002E-10	281.760828	0.1000037	0.0001017781	281.760828
3.99947	3.59E-10	281.785354	0.1000038	0.0001023847	281.785354
4.1995	3.358E-10	281.809898	0.1000039	0.0001029888	281.809898
4.39951	3.28E-10	281.8344	0.1000037	0.0001035893	281.8344
4.59951	3.706E-10	281.858969	0.1000037	0.0001041892	281.858969
4.79949	3.06E-10	281.906055	0.1000001	0.000104859	281.906055
4.99948	3.524E-10	281.930584	0.1000003	0.000105452	281.930584
5.19949	3.342E-10	281.955189	0.1000002	0.000106042	281.955189
5.39949	3.518E-10	281.979745	0.0999999	0.000106631	281.979745
5.59951	3.822E-10	282.00428	0.0999999	0.000107215	282.00428
5.7995	3.659E-10	282.028764	0.1000003	0.000107794	282.028764
5.99948	3.698E-10	282.053329	0.1000001	0.000108371	282.053329
6.19951	3.788E-10	282.077846	0.1000003	0.000108945	282.077846
6.39947	3.765E-10	282.102386	0.1000001	0.000109516	282.102386
6.59949	3.901E-10	282.126896	0.0999999	0.000110082	282.126896
6.79949	3.743E-10	282.151427	0.0999999	0.000110647	282.151427
6.99947	3.858E-10	282.17594	0.0999999	0.000111206	282.17594
7.1995	3.999E-10	282.200466	0.0999999	0.000111759	282.200466
7.39949	3.623E-10	282.263793	0.1000001	0.000112306	282.263793
7.5995	3.724E-10	282.288372	0.1	0.000112858	282.288372
7.79952	3.892E-10	282.312894	0.0999999	0.000113403	282.312894
7.9995	3.909E-10	282.337407	0.1000001	0.000113946	282.337407
8.19949	3.949E-10	282.361931	0.1	0.000114486	282.361931
8.39949	3.999E-10	282.386565	0.0999996	0.00011502	282.386565
8.59947	4.098E-10	282.411128	0.1	0.000115554	282.411128
8.7995	3.941E-10	282.435664	0.1000001	0.000116084	282.435664
8.99947	4.099E-10	282.460195	0.1	0.000116608	282.460195
9.19949	4.296E-10	282.484721	0.1000001	0.000117134	282.484721
9.39951	4.151E-10	282.509243	0.1	0.00011766	282.509243
9.59949	4.05E-10	282.533773	0.0999998	0.00011818	282.533773
9.79951	4.121E-10	282.558281	0.1000001	0.000118699	282.558281
9.99948	4.385E-10	282.582827	0.1000001	0.000119214	282.582827
9.99949	3.674E-10	282.606183	0.1000001	0.000119214	282.606183
9.79952	2.678E-10	282.630697	0.0999999	0.000118699	282.630697
9.59949	1.412E-10	282.655209	0.0999999	0.000118183	282.655209
9.39949	1.878E-10	282.679735	0.0999997	0.000117665	282.679735
9.1995	1.737E-10	282.704332	0.1	0.000117142	282.704332
8.99949	2.124E-10	282.763943	0.0999999	0.000116617	282.763943
8.79951	1.47E-10	282.788422	0.1	0.000116084	282.788422
8.59951	1.211E-10	282.812956	0.1	0.000115547	282.812956
8.3995	1.077E-10	282.837464	0.0999999	0.000115008	282.837464
8.19949	1.081E-10	282.862042	0.0999998	0.000114462	282.862042
7.9995	8.64E-11	282.88655	0.1	0.000113913	282.88655
7.7995	6.81E-11	282.911119	0.1000001	0.000113361	282.911119
7.59948	6.45E-11	282.935629	0.0999999	0.000112808	282.935629
7.39951	5.09E-11	282.960184	0.1	0.00011225	282.960184
7.1995	4.65E-11	282.984695	0.0999998	0.00011169	282.984695
6.99951	4.39E-11	283.009223	0.0999999	0.000111128	283.009223
6.7995	1.23E-11	283.033824	0.1000001	0.000110562	283.033824
6.59951	1.48E-11	283.058373	0.1	0.000109992	283.058373
6.39951	7.1E-12	283.082895	0.1	0.000109421	283.082895
6.1995	1.06E-11	283.107428	0.1000002	0.000108846	283.107428
5.99951	-1.72E-11	283.131934	0.0999999	0.000108267	283.131934
5.7995	-3.24E-11	283.156463	0.1	0.000107686	283.156463
5.59952	-9.7E-12	283.180973	0.0999998	0.0001071	283.180973
5.39949	-1.45E-11	283.205572	0.0999999	0.000106512	283.205572
5.1995	2.41E-11	283.266012	0.1	0.000105921	283.266012
4.9995	-3.08E-11	283.290554	0.0999999	0.000105324	283.290554
4.79949	-3.97E-11	283.31508	0.1	0.000104728	283.31508
4.59951	-4.19E-11	283.33961	0.1000001	0.000104127	283.33961
4.39949	-5.06E-11	283.364364	0.1000001	0.000103525	283.364364
4.19951	-4.19E-11	283.388895	0.0999997	0.000102919	283.388895
3.99952	-7.9E-11	283.413465	0.0999999	0.000102312	283.413465
3.79948	-8.38E-11	283.437981	0.0999997	0.000101706	283.437981
3.59952	-7.11E-11	283.462528	0.1000001	0.000101095	283.462528
3.39951	-7.66E-11	283.487049	0.1	0.000100485	283.487049
3.1995	-9.25E-11	283.51158	0.1000001	9.9876E-05	283.51158
2.99949	-1.134E-10	283.536149	0.1000002	9.9265E-05	283.536149
2.7995	-8.82E-11	283.56069	0.0999999	9.8655E-05	283.56069
2.59948	-8.73E-11	283.58519	0.0999998	9.8046E-05	283.58519
2.3995	-1.135E-10	283.609803	0.1	9.7437E-05	283.609803
2.19951	-1.276E-10	283.634325	0.1	9.6828E-05	283.634325
1.9995	4.29E-11	283.658844	0.1	9.6223E-05	283.658844
1.79951	-1.016E-10	283.683363	0.1000002	9.5618E-05	283.683363
1.59952	-1.265E-10	283.707987	0.1000001	9.5016E-05	283.707987
1.39952	-7.29E-11	283.767399	0.1000001	9.4419E-05	283.767399
1.19951	-1.142E-10	283.791941	0.1	9.382E-05	283.791941
0.99949	-1.284E-10	283.816466	0.1000003	9.3225E-05	283.816466
0.79952	-1.141E-10	283.840999	0.1000001	9.2632E-05	283.840999
0.59951	-1.33E-10	283.865561	0.1000001	9.2039E-05	283.865561
0.39952	-1.555E-10	283.890091	0.1000001	9.145E-05	283.890091
0.1995	-1.521E-10	283.914603	0.1	9.0861E-05	283.914603
-0.00047	-1.508E-10	283.939122	0.1	9.028E-05	283.939122
-0.2005	-1.588E-10	283.96371	0.1000001	8.9702E-05	283.96371
-0.40047	-1.708E-10	283.988243	0.1000003	8.9137E-05	283.988243
-0.60048	-1.642E-10	284.016104	0.1000054	8.85049E-05	284.016104
-0.80048	-1.552E-10	284.040701	0.1000048	8.79623E-05	284.040701
-1.00048	-3.31E-10	284.065237	0.1000051	8.74292E-05	284.065237
-1.20052	-2.249E-10	284.089748	0.1000047	8.6909E-05	284.089748
-1.4005	-2.037E-10	284.114279	0.1000043	8.63924E-05	284.114279
-1.60048	-1.903E-10	284.138789	0.1000052	8.58816E-05	284.138789
-1.80051	-2.033E-10	284.16332	0.100004	8.53699E-05	284.16332
-2.00049	-2.147E-10	284.187869	0.1000045	8.48576E-05	284.187869
-2.2005	-2.112E-10	284.212403	0.100005	8.43473E-05	284.212403
-2.40051	-1.626E-10	284.271728	0.1000052	8.38374E-05	284.271728
-2.60049	-2.073E-10	284.296282	0.1000053	8.33243E-05	284.296282
-2.80049	-1.855E-10	284.320822	0.1000052	8.28106E-05	284.320822
-3.00049	-1.977E-10	284.345347	0.1000041	8.22961E-05	284.345347
-3.2005	-2.199E-10	284.369868	0.1000053	8.17818E-05	284.369868
-3.40051	-2.321E-10	284.39438	0.1000055	8.12635E-05	284.39438
-3.60047	-2.277E-10	284.419014	0.1000049	8.0747E-05	284.419014
-3.8005	-2.142E-10	284.443528	0.1000046	8.02284E-05	284.443528
-4.00049	-2.425E-10	284.468053	0.1000046	7.97088E-05	284.468053
-4.2005	-2.387E-10	284.492561	0.1000053	7.91885E-05	284.492561
-4.40048	-2.355E-10	284.517078	0.1000057	7.86653E-05	284.517078
-4.60048	-2.524E-10	284.541619	0.1000048	7.81429E-05	284.541619
-4.80046	-2.412E-10	284.566135	0.1000059	7.76172E-05	284.566135
-5.0005	-2.5E-10	284.590643	0.1000057	7.70918E-05	284.590643
-5.2005	-2.751E-10	284.615155	0.1000047	7.65639E-05	284.615155
-5.40046	-2.554E-10	284.639681	0.1000048	7.60327E-05	284.639681
-5.60049	-2.358E-10	284.664196	0.1000052	7.5501E-05	284.664196
-5.80046	-2.738E-10	284.688725	0.1000052	7.49684E-05	284.688725
-6.00049	-2.837E-10	284.71332	0.1000049	7.44329E-05	284.71332
-6.20047	-2.09E-10	284.770647	0.100005	7.38987E-05	284.770647
-6.40049	-2.664E-10	284.795223	0.1000062	7.33602E-05	284.795223
-6.60049	-2.562E-10	284.819744	0.1000057	7.28195E-05	284.819744
-6.80049	-2.358E-10	284.844287	0.1000044	7.22761E-05	284.844287
-7.00049	-2.816E-10	284.868859	0.1000062	7.17323E-05	284.868859
-7.20047	-3.031E-10	284.893375	0.1000057	7.11854E-05	284.893375
-7.40049	-2.666E-10	284.917949	0.1000057	7.06376E-05	284.917949
-7.60047	-2.803E-10	284.942477	0.1000052	7.00864E-05	284.942477
-7.80048	-2.955E-10	284.967021	0.1000052	6.9535E-05	284.967021
-8.00048	-2.984E-10	284.991543	0.1000054	6.89807E-05	284.991543
-8.20049	-3.083E-10	285.016064	0.1000044	6.84242E-05	285.016064
-8.40049	-2.951E-10	285.040683	0.1000059	6.7865E-05	285.040683
-8.60048	-2.42E-11	285.065212	0.1000051	6.73057E-05	285.065212
-8.80047	-2.866E-10	285.089737	0.1000061	6.67435E-05	285.089737
-9.00048	-3.059E-10	285.114266	0.1000066	6.61796E-05	285.114266
-9.20049	-3.116E-10	285.138773	0.1000054	6.56146E-05	285.138773
-9.40049	-2.946E-10	285.1633	0.1000058	6.50454E-05	285.1633
-9.60048	-3.103E-10	285.187812	0.1000056	6.4477E-05	285.187812
-9.80046	-3.308E-10	285.212336	0.1000066	6.39081E-05	285.212336
-10.00046	-2.664E-10	285.272479	0.100005	6.33427E-05	285.272479
-10.20047	-2.944E-10	285.297015	0.1000066	6.27694E-05	285.297015
-10.40048	-3.083E-10	285.321546	0.1000058	6.21946E-05	285.321546
-10.60048	-3.255E-10	285.34607	0.1000072	6.1617E-05	285.34607
-10.80048	-3.13E-10	285.370745	0.1000062	6.10355E-05	285.370745
-11.00047	-3.343E-10	285.395269	0.1000048	6.04545E-05	285.395269
-11.2005	-3.304E-10	285.41993	0.1000057	5.98709E-05	285.41993
-11.40049	-3.221E-10	285.444459	0.1000058	5.92853E-05	285.444459
-11.60049	-3.419E-10	285.468984	0.1000066	5.86978E-05	285.468984
-11.80048	-4.725E-10	285.493516	0.100007	5.81085E-05	285.493516
-12.00049	-3.634E-10	285.518069	0.100005	5.75165E-05	285.518069
#scan	iMeasureCycle=3	iMux=0	time=319.756	N=222	LocalTime=22/06/2023 03:20:09
#VGate(V)	IGate(A)	time(s)	VDrain(V)	IDrain(A)	time(s)
-12.00048	-6.63E-11	319.76353	0.1000063	5.76015E-05	319.76353
-11.80049	-1.52E-11	319.788417	0.1000064	5.81963E-05	319.788417
-11.6005	-5.3E-12	319.814278	0.1000061	5.87877E-05	319.814278
-11.40049	2.39E-11	319.838813	0.1000072	5.93775E-05	319.838813
-11.2005	1.603E-10	319.863351	0.1000051	5.99652E-05	319.863351
-11.00048	7.73E-11	319.887881	0.1000069	6.05526E-05	319.887881
-10.8005	7.52E-11	319.912403	0.1000068	6.11371E-05	319.912403
-10.6005	9.36E-11	319.936942	0.1000074	6.17193E-05	319.936942
-10.4005	-1.23E-11	319.961472	0.1000055	6.22988E-05	319.961472
-10.20049	7.62E-11	319.98606	0.100007	6.28772E-05	319.98606
-10.0005	8.81E-11	320.010644	0.1000067	6.34538E-05	320.010644
-9.80048	1.307E-10	320.035214	0.1000068	6.40293E-05	320.035214
-9.60052	1.095E-10	320.059762	0.1000045	6.46013E-05	320.059762
-9.40048	1.048E-10	320.084292	0.1000062	6.51742E-05	320.084292
-9.20048	1.338E-10	320.108823	0.1000052	6.57419E-05	320.108823
-9.00049	1.428E-10	320.133416	0.1000059	6.63066E-05	320.133416
-8.8005	1.332E-10	320.157944	0.1000056	6.68689E-05	320.157944
-8.6005	1.411E-10	320.182456	0.1000062	6.74279E-05	320.182456
-8.40051	1.547E-10	320.206984	0.1000061	6.79858E-05	320.206984
-8.20049	1.645E-10	320.231483	0.1000062	6.85419E-05	320.231483
-8.0005	1.571E-10	320.256008	0.1000058	6.90947E-05	320.256008
-7.80049	1.638E-10	320.280531	0.1000058	6.96454E-05	320.280531
-7.60052	1.175E-10	320.326349	0.1000061	7.01941E-05	320.326349
-7.4005	1.652E-10	320.350878	0.1000055	7.07419E-05	320.350878
-7.20051	1.805E-10	320.375406	0.1000052	7.12892E-05	320.375406
-7.0005	1.709E-10	320.399935	0.1000061	7.18347E-05	320.399935
-6.80049	1.773E-10	320.424505	0.1000053	7.23777E-05	320.424505
-6.6005	1.908E-10	320.44903	0.100006	7.29202E-05	320.44903
-6.4005	1.812E-10	320.473637	0.100005	7.34586E-05	320.473637
-6.20049	2.033E-10	320.498233	0.1000059	7.39964E-05	320.498233
-6.00049	2.045E-10	320.522758	0.1000053	7.45331E-05	320.522758
-5.80049	1.926E-10	320.547293	0.1000054	7.50679E-05	320.547293
-5.60051	2.075E-10	320.571807	0.1000061	7.56011E-05	320.571807
-5.40051	2.338E-10	320.596341	0.1000051	7.6132E-05	320.596341
-5.20049	2.149E-10	320.620848	0.1000053	7.66607E-05	320.620848
-5.00049	2.153E-10	320.645371	0.1000054	7.7189E-05	320.645371
-4.80048	2.295E-10	320.66988	0.1000056	7.77154E-05	320.66988
-4.6005	2.525E-10	320.694405	0.1000065	7.82403E-05	320.694405
-4.4005	2.322E-10	320.718907	0.1000056	7.87631E-05	320.718907
-4.2005	2.297E-10	320.743428	0.1000053	7.9286E-05	320.743428
-4.00049	2.517E-10	320.767934	0.100004	7.98054E-05	320.767934
-3.80051	1.886E-10	320.828073	0.1000053	8.03208E-05	320.828073
-3.60049	2.178E-10	320.852613	0.1000051	8.08411E-05	320.852613
-3.4005	2.37E-10	320.877217	0.1000044	8.13592E-05	320.877217
-3.20049	2.486E-10	320.901739	0.1000052	8.18756E-05	320.901739
-3.0005	2.322E-10	320.926314	0.1000045	8.23915E-05	320.926314
-2.8005	2.486E-10	320.950844	0.1000052	8.2907E-05	320.950844
-2.6005	2.767E-10	320.975371	0.1000047	8.34209E-05	320.975371
-2.4005	2.554E-10	320.999934	0.1000054	8.39346E-05	320.999934
-2.20049	2.484E-10	321.024459	0.1000047	8.44472E-05	321.024459
-2.0005	2.791E-10	321.048989	0.1000054	8.49599E-05	321.048989
-1.8005	2.687E-10	321.073511	0.1000048	8.54727E-05	321.073511
-1.60051	2.739E-10	321.098025	0.100004	8.59848E-05	321.098025
-1.40052	2.79E-10	321.122555	0.1000048	8.65016E-05	321.122555
-1.20054	2.861E-10	321.147073	0.1000041	8.70188E-05	321.147073
-1.0005	2.895E-10	321.171684	0.1000045	8.75475E-05	321.171684
-0.80049	2.903E-10	321.196201	0.1000046	8.80863E-05	321.196201
-0.6005	2.948E-10	321.22072	0.100004	8.86345E-05	321.22072
-0.40052	2.952E-10	321.245238	0.1000042	8.9196E-05	321.245238
-0.20051	3.801E-10	321.269774	0.1000042	8.97656E-05	321.269774
-0.0005	2.567E-10	321.329562	0.1000049	9.03384E-05	321.329562
0.1995	2.912E-10	321.354096	0.100005	9.09221E-05	321.354096
0.39952	1.819E-10	321.378614	0.100005	9.1509E-05	321.378614
0.59952	2.855E-10	321.403151	0.1000049	9.20979E-05	321.403151
0.79949	3.088E-10	321.427719	0.1000037	9.26882E-05	321.427719
0.99949	3.075E-10	321.452243	0.1000042	9.32823E-05	321.452243
1.1995	3.048E-10	321.476753	0.1000043	9.3876E-05	321.476753
1.3995	3.326E-10	321.501323	0.1000042	9.44747E-05	321.501323
1.59952	3.165E-10	321.525836	0.100004	9.50738E-05	321.525836
1.7995	3.146E-10	321.550391	0.1000046	9.56743E-05	321.550391
1.99951	3.415E-10	321.574901	0.1000043	9.62779E-05	321.574901
2.19949	3.402E-10	321.599425	0.1000033	9.68809E-05	321.599425
2.39949	3.331E-10	321.623957	0.100004	9.74854E-05	321.623957
2.59953	3.354E-10	321.648464	0.1000049	9.80927E-05	321.648464
2.79949	3.414E-10	321.672987	0.1000037	9.86994E-05	321.672987
2.99951	3.543E-10	321.697467	0.100004	9.93076E-05	321.697467
3.19949	3.324E-10	321.722005	0.1000036	9.99134E-05	321.722005
3.39948	3.497E-10	321.746515	0.1000031	0.0001005218	321.746515
3.5995	3.652E-10	321.771048	0.1000037	0.0001011285	321.771048
3.7995	2.966E-10	321.831703	0.1000035	0.0001017279	321.831703
3.9995	3.301E-10	321.856224	0.1000046	0.0001023356	321.856224
4.19949	3.477E-10	321.88074	0.1000032	0.0001029382	321.88074
4.3995	3.463E-10	321.90526	0.100003	0.0001035407	321.90526
4.59949	3.478E-10	321.929842	0.1000034	0.0001041403	321.929842
4.79948	3.074E-10	321.976804	0.1000001	0.00010481	321.976804
4.99949	3.294E-10	322.001401	0.1	0.000105404	322.001401
5.19949	3.626E-10	322.02592	0.1	0.000105993	322.02592
5.39948	3.594E-10	322.050477	0.1000001	0.000106581	322.050477
5.59949	3.584E-10	322.074995	0.1	0.000107167	322.074995
5.7995	3.792E-10	322.09954	0.0999999	0.000107746	322.09954
5.9995	3.763E-10	322.124056	0.0999998	0.000108322	322.124056
6.1995	3.699E-10	322.148578	0.1000002	0.000108897	322.148578
6.3995	3.85E-10	322.173171	0.1000001	0.000109468	322.173171
6.5995	3.924E-10	322.197699	0.1000001	0.000110034	322.197699
6.79947	3.864E-10	322.222221	0.0999999	0.000110597	322.222221
6.99949	3.827E-10	322.246745	0.0999999	0.000111157	322.246745
7.19949	3.995E-10	322.271185	0.1	0.000111714	322.271185
7.39951	3.321E-10	322.33445	0.0999999	0.000112261	322.33445
7.59947	3.771E-10	322.359016	0.1	0.000112813	322.359016
7.79949	3.702E-10	322.383532	0.1	0.000113361	322.383532
7.9995	3.855E-10	322.408145	0.0999997	0.000113904	322.408145
8.19949	4.075E-10	322.432714	0.0999999	0.000114443	322.432714
8.39949	3.965E-10	322.457229	0.0999997	0.00011498	322.457229
8.59949	3.87E-10	322.481736	0.1000002	0.00011551	322.481736
8.79952	4.045E-10	322.506319	0.1000002	0.000116041	322.506319
8.9995	4.095E-10	322.530839	0.0999998	0.000116567	322.530839
9.19949	4.136E-10	322.555377	0.1	0.000117092	322.555377
9.3995	4.072E-10	322.579891	0.1	0.000117618	322.579891
9.59949	4.189E-10	322.604412	0.0999997	0.000118138	322.604412
9.7995	4.24E-10	322.629011	0.1000001	0.000118657	322.629011
9.99947	4.154E-10	322.653523	0.1	0.000119174	322.653523
9.99947	4.448E-10	322.676858	0.0999998	0.000119174	322.676858
9.7995	3.137E-10	322.701384	0.1	0.000118659	322.701384
9.5995	2.374E-10	322.725892	0.1000001	0.000118141	322.725892
9.39951	2.301E-10	322.750398	0.1000001	0.000117624	322.750398
9.19952	2.102E-10	322.774908	0.1000001	0.0001171	322.774908
8.9995	2.165E-10	322.835643	0.0999997	0.000116576	322.835643
8.79952	1.598E-10	322.860168	0.0999998	0.000116046	322.860168
8.5995	1.394E-10	322.884692	0.1000001	0.000115507	322.884692
8.3995	1.222E-10	322.909216	0.1	0.000114966	322.909216
8.1995	1.012E-10	322.933792	0.0999999	0.000114419	322.933792
7.99951	1.046E-10	322.958322	0.0999998	0.000113869	322.958322
7.7995	8.11E-11	322.982807	0.0999998	0.000113316	322.982807
7.5995	5.55E-11	323.007385	0.1000001	0.000112762	323.007385
7.39952	7.3E-11	323.0319	0.1000001	0.000112205	323.0319
7.19949	6.76E-11	323.056461	0.1	0.000111645	323.056461
6.99949	-8.89E-11	323.080973	0.0999999	0.000111081	323.080973
6.79949	-2E-12	323.105519	0.0999999	0.000110518	323.105519
6.59952	2.23E-11	323.130039	0.1	0.000109948	323.130039
6.39949	1.83E-11	323.154574	0.0999999	0.000109375	323.154574
6.1995	-1.02E-11	323.17918	0.1000002	0.000108801	323.17918
5.99949	-1.15E-11	323.203731	0.1	0.000108221	323.203731
5.7995	-3.5E-12	323.228241	0.0999998	0.000107637	323.228241
5.59951	-2.28E-11	323.25279	0.1	0.000107051	323.25279
5.39948	-3.24E-11	323.277303	0.1000002	0.000106462	323.277303
5.19948	2.73E-11	323.33747	0.0999998	0.000105872	323.33747
4.99951	-1.83E-11	323.362025	0.1000001	0.000105277	323.362025
4.7995	-4.66E-11	323.386542	0.0999999	0.00010468	323.386542
4.5995	-3.53E-11	323.41108	0.1	0.00010408	323.41108
4.39948	-3.92E-11	323.435653	0.0999998	0.000103475	323.435653
4.19949	-7.39E-11	323.460169	0.0999999	0.000102871	323.460169
3.99949	-6.83E-11	323.484686	0.1	0.000102263	323.484686
3.79949	-6.33E-11	323.509306	0.1	0.000101655	323.509306
3.59949	-7.81E-11	323.533823	0.1	0.000101046	323.533823
3.39952	-8.66E-11	323.558365	0.1000001	0.000100435	323.558365
3.1995	-8.25E-11	323.582902	0.1	9.9826E-05	323.582902
2.99951	-9.98E-11	323.607435	0.1000001	9.9214E-05	323.607435
2.7995	-9.81E-11	323.631962	0.0999999	9.8601E-05	323.631962
2.59949	-9.45E-11	323.656472	0.0999998	9.7991E-05	323.656472
2.39951	-9.8E-11	323.681009	0.0999999	9.7384E-05	323.681009
2.19951	-1.259E-10	323.705481	0.1	9.6776E-05	323.705481
1.99948	-1.249E-10	323.730014	0.0999998	9.6169E-05	323.730014
1.7995	-1.03E-10	323.754532	0.0999999	9.5565E-05	323.754532
1.59951	-1.319E-10	323.779065	0.1000001	9.4962E-05	323.779065
1.39952	-8.44E-11	323.83904	0.1000002	9.4366E-05	323.83904
1.1995	-1.224E-10	323.863569	0.0999999	9.3767E-05	323.863569
0.99948	-1.198E-10	323.888089	0.0999997	9.3171E-05	323.888089
0.79948	-1.425E-10	323.91262	0.0999997	9.2576E-05	323.91262
0.59951	-1.478E-10	323.937193	0.1000003	9.1985E-05	323.937193
0.39952	-1.414E-10	323.961713	0.1	9.1396E-05	323.961713
0.19948	-1.706E-10	323.986415	0.0999998	9.0807E-05	323.986415
-0.0005	-1.677E-10	324.011062	0.1	9.0227E-05	324.011062
-0.2005	-1.513E-10	324.035587	0.0999999	8.965E-05	324.035587
-0.40051	-1.745E-10	324.060125	0.1	8.9083E-05	324.060125
-0.60051	-1.864E-10	324.084677	0.1	8.8528E-05	324.084677
-0.80051	-1.158E-10	324.109203	0.1	8.7985E-05	324.109203
-1.00048	-1.575E-10	324.137076	0.1000052	8.73742E-05	324.137076
-1.20049	-1.666E-10	324.161595	0.1000048	8.68531E-05	324.161595
-1.40048	-1.929E-10	324.186195	0.1000052	8.63381E-05	324.186195
-1.60048	-1.868E-10	324.210805	0.100005	8.58251E-05	324.210805
-1.80052	-1.857E-10	324.235325	0.1000047	8.53141E-05	324.235325
-2.00048	-1.965E-10	324.259832	0.1000052	8.48015E-05	324.259832
-2.20049	-2.152E-10	324.284336	0.1000057	8.42913E-05	324.284336
-2.40048	-2.075E-10	324.343426	0.1000051	8.37806E-05	324.343426
-2.60048	-2.227E-10	324.367956	0.1000057	8.32671E-05	324.367956
-2.8005	-2.158E-10	324.392507	0.1000041	8.27516E-05	324.392507
-3.00049	-2.052E-10	324.417057	0.1000048	8.22379E-05	324.417057
-3.20049	-2.135E-10	324.441626	0.1000049	8.17231E-05	324.441626
-3.4005	-2.346E-10	324.466156	0.1000058	8.12069E-05	324.466156
-3.60047	-2.292E-10	324.490669	0.1000048	8.06887E-05	324.490669
-3.80048	-2.145E-10	324.515276	0.1000049	8.01704E-05	324.515276
-4.00048	-2.399E-10	324.539795	0.1000056	7.96511E-05	324.539795
-4.20048	-2.556E-10	324.564335	0.1000052	7.91304E-05	324.564335
-4.40049	-2.439E-10	324.588852	0.1000055	7.8607E-05	324.588852
-4.60049	-2.285E-10	324.613411	0.1000052	7.8085E-05	324.613411
-4.80048	-2.447E-10	324.637949	0.1000049	7.75586E-05	324.637949
-5.0005	-2.682E-10	324.66246	0.1000058	7.70302E-05	324.66246
-5.2005	-2.405E-10	324.686976	0.1000048	7.65026E-05	324.686976
-5.40049	-2.489E-10	324.711498	0.1000049	7.59728E-05	324.711498
-5.60049	-2.605E-10	324.73604	0.1000062	7.54419E-05	324.73604
-5.80048	-2.601E-10	324.760555	0.1000053	7.49081E-05	324.760555
-6.00049	-2.628E-10	324.785077	0.1000058	7.43728E-05	324.785077
-6.20048	-2.189E-10	324.842364	0.1000065	7.38384E-05	324.842364
-6.40049	-2.436E-10	324.866895	0.1000057	7.32987E-05	324.866895
-6.60047	-2.517E-10	324.891449	0.100006	7.27568E-05	324.891449
-6.80049	-2.653E-10	324.915957	0.1000049	7.22145E-05	324.915957
-7.00048	-2.615E-10	324.940523	0.1000061	7.16703E-05	324.940523
-7.20047	-2.791E-10	324.965045	0.1000056	7.11232E-05	324.965045
-7.40048	-2.861E-10	324.989573	0.1000061	7.05749E-05	324.989573
-7.60049	-2.734E-10	325.014128	0.1000059	7.00247E-05	325.014128
-7.80049	-2.778E-10	325.038677	0.1000048	6.9472E-05	325.038677
-8.00049	-2.965E-10	325.063212	0.1000062	6.89178E-05	325.063212
-8.20048	-2.944E-10	325.087739	0.1000068	6.83613E-05	325.087739
-8.40049	-2.881E-10	325.112257	0.1000053	6.78017E-05	325.112257
-8.60049	-2.969E-10	325.136779	0.1000063	6.72427E-05	325.136779
-8.80047	-3.106E-10	325.161297	0.1000055	6.66797E-05	325.161297
-9.00048	-3.057E-10	325.185913	0.1000057	6.61151E-05	325.185913
-9.20048	-2.934E-10	325.210421	0.1000066	6.555E-05	325.210421
-9.40048	-3.021E-10	325.235026	0.100006	6.498E-05	325.235026
-9.60049	-3.287E-10	325.259546	0.1000059	6.44123E-05	325.259546
-9.80048	-3.055E-10	325.284081	0.1000059	6.38432E-05	325.284081
-10.00049	-2.631E-10	325.343728	0.1000063	6.3278E-05	325.343728
-10.20049	-3.054E-10	325.368255	0.1000072	6.27048E-05	325.368255
-10.40048	-2.925E-10	325.39278	0.1000062	6.21282E-05	325.39278
-10.60046	-3.118E-10	325.4173	0.1000055	6.15502E-05	325.4173
-10.80049	-3.289E-10	325.441876	0.1000066	6.09706E-05	325.441876
-11.00048	-3.288E-10	325.466379	0.1000063	6.03881E-05	325.466379
-11.20047	-3.173E-10	325.490907	0.1000063	5.98052E-05	325.490907
-11.40048	-5.64E-11	325.51552	0.1000068	5.92196E-05	325.51552
-11.60049	-3.244E-10	325.540068	0.1000056	5.86311E-05	325.540068
-11.8005	-3.311E-10	325.564598	0.100006	5.80412E-05	325.564598
-12.00049	-3.369E-10	325.58912	0.1000056	5.74512E-05	325.58912
