#scan	iMeasureCycle=1	iMux=0	time=0.038	N=222	LocalTime=22/06/2023 07:50:51
#VGate(V)	IGate(A)	time(s)	VDrain(V)	IDrain(A)	time(s)
-12.00049	-3.1522E-09	0.063884	0.1000066	6.68281E-05	0.063884
-11.80049	-2.9989E-09	0.088768	0.1000067	6.73945E-05	0.088768
-11.60048	-1.1734E-09	0.113283	0.1000069	6.79583E-05	0.113283
-11.40051	-4.867E-10	0.137808	0.1000072	6.85193E-05	0.137808
-11.2005	-3.373E-10	0.162324	0.1000071	6.90772E-05	0.162324
-11.00048	-2.111E-10	0.186856	0.1000071	6.96318E-05	0.186856
-10.8005	-1.532E-10	0.211361	0.1000075	7.01846E-05	0.211361
-10.60051	-2.365E-10	0.235902	0.1000063	7.07331E-05	0.235902
-10.4005	-1.004E-10	0.260406	0.1000066	7.12832E-05	0.260406
-10.2005	-5.36E-11	0.284938	0.100006	7.18285E-05	0.284938
-10.0005	-2.72E-11	0.30945	0.1000057	7.2372E-05	0.30945
-9.8005	-2.2E-11	0.333976	0.100006	7.29143E-05	0.333976
-9.60051	-1.19E-11	0.358505	0.1000058	7.34536E-05	0.358505
-9.40051	2.96E-11	0.383105	0.1000056	7.39925E-05	0.383105
-9.2005	3.69E-11	0.407623	0.1000054	7.45278E-05	0.407623
-9.00049	2.92E-11	0.432404	0.100005	7.50574E-05	0.432404
-8.80049	5.33E-11	0.456966	0.1000062	7.5587E-05	0.456966
-8.6005	6.38E-11	0.481489	0.100006	7.61086E-05	0.481489
-8.40051	7.95E-11	0.506046	0.1000051	7.66311E-05	0.506046
-8.20049	7.41E-11	0.530512	0.1000049	7.71514E-05	0.530512
-8.0005	9.91E-11	0.55505	0.1000051	7.76705E-05	0.55505
-7.80048	9.02E-11	0.579563	0.100006	7.81871E-05	0.579563
-7.6005	7.96E-11	0.626829	0.1000053	7.86981E-05	0.626829
-7.4005	9.75E-11	0.651372	0.1000057	7.92126E-05	0.651372
-7.2005	8.42E-11	0.675924	0.1000052	7.97241E-05	0.675924
-7.00051	1.334E-10	0.700483	0.1000057	8.02343E-05	0.700483
-6.80048	1.317E-10	0.725055	0.1000057	8.07407E-05	0.725055
-6.6005	1.327E-10	0.749648	0.1000051	8.12471E-05	0.749648
-6.40052	1.423E-10	0.774166	0.1000053	8.17521E-05	0.774166
-6.20051	1.46E-10	0.798785	0.1000056	8.22549E-05	0.798785
-6.00051	1.608E-10	0.823308	0.1000052	8.27555E-05	0.823308
-5.8005	1.67E-10	0.847851	0.1000049	8.32554E-05	0.847851
-5.6005	1.737E-10	0.872384	0.100005	8.37537E-05	0.872384
-5.40051	1.713E-10	0.896899	0.100005	8.42495E-05	0.896899
-5.2005	1.722E-10	0.921422	0.1000042	8.47448E-05	0.921422
-5.00052	1.954E-10	0.946007	0.1000052	8.52382E-05	0.946007
-4.8005	2.054E-10	0.970541	0.1000057	8.57319E-05	0.970541
-4.60049	1.876E-10	0.995054	0.1000049	8.62223E-05	0.995054
-4.40051	1.869E-10	1.019607	0.1000052	8.67131E-05	1.019607
-4.2005	2.092E-10	1.044352	0.1000039	8.72006E-05	1.044352
-4.0005	2.158E-10	1.068878	0.1000047	8.7687E-05	1.068878
-3.8005	1.602E-10	1.128259	0.1000042	8.81699E-05	1.128259
-3.6005	2.034E-10	1.152802	0.1000046	8.86579E-05	1.152802
-3.40051	2.075E-10	1.177307	0.1000046	8.91417E-05	1.177307
-3.20051	2.085E-10	1.201842	0.1000045	8.96251E-05	1.201842
-3.00051	2.397E-10	1.226416	0.1000044	9.0108E-05	1.226416
-2.80051	2.302E-10	1.251049	0.100004	9.05888E-05	1.251049
-2.60051	2.29E-10	1.275569	0.1000045	9.10688E-05	1.275569
-2.40052	2.425E-10	1.300089	0.1000044	9.15484E-05	1.300089
-2.20051	2.588E-10	1.324608	0.1000051	9.20271E-05	1.324608
-2.00051	2.512E-10	1.349129	0.1000046	9.25049E-05	1.349129
-1.80051	2.427E-10	1.37365	0.1000046	9.29838E-05	1.37365
-1.6005	5.221E-10	1.398229	0.1000044	9.34634E-05	1.398229
-1.4005	2.864E-10	1.422743	0.1000053	9.39511E-05	1.422743
-1.2005	2.913E-10	1.447342	0.100005	9.44429E-05	1.447342
-1.00051	2.697E-10	1.471879	0.100005	9.49417E-05	1.471879
-0.80051	2.846E-10	1.496399	0.1000047	9.54531E-05	1.496399
-0.6005	2.861E-10	1.520959	0.1000038	9.59732E-05	1.520959
-0.40051	2.885E-10	1.545476	0.1000044	9.65017E-05	1.545476
-0.20051	3.024E-10	1.570021	0.1000049	9.70359E-05	1.570021
-0.00051	1.069E-10	1.629855	0.1000037	9.75675E-05	1.629855
0.19948	2.574E-10	1.654409	0.1000038	9.81117E-05	1.654409
0.39949	2.668E-10	1.678918	0.1000036	9.86581E-05	1.678918
0.5995	2.955E-10	1.703464	0.1000041	9.9205E-05	1.703464
0.79948	3.094E-10	1.728027	0.1000037	9.9752E-05	1.728027
0.9995	2.991E-10	1.752548	0.1000034	0.0001003034	1.752548
1.19949	3.056E-10	1.777062	0.1000037	0.0001008548	1.777062
1.39949	3.084E-10	1.801572	0.1000038	0.0001014064	1.801572
1.5995	3.178E-10	1.826077	0.1000043	0.0001019633	1.826077
1.79948	3.341E-10	1.850588	0.1000035	0.0001025189	1.850588
1.99949	3.264E-10	1.875099	0.1000034	0.0001030774	1.875099
2.19949	3.282E-10	1.899628	0.1000032	0.0001036355	1.899628
2.39949	3.338E-10	1.924135	0.1000029	0.0001041949	1.924135
2.59949	2.817E-10	1.971285	0.0999998	0.000104829	1.971285
2.79948	3.149E-10	1.995806	0.0999999	0.000105388	1.995806
2.99949	3.465E-10	2.020362	0.0999999	0.000105954	2.020362
3.19949	3.392E-10	2.044867	0.1000001	0.000106512	2.044867
3.39947	3.393E-10	2.069443	0.0999999	0.000107075	2.069443
3.59949	2.669E-10	2.132748	0.0999998	0.000107629	2.132748
3.79949	3.3E-10	2.157299	0.0999999	0.000108193	2.157299
3.99949	3.39E-10	2.181843	0.0999999	0.000108753	2.181843
4.19949	3.404E-10	2.20635	0.1000002	0.000109308	2.20635
4.39947	3.604E-10	2.230937	0.0999999	0.000109864	2.230937
4.59948	3.631E-10	2.25545	0.0999998	0.00011042	2.25545
4.79947	3.459E-10	2.279989	0.1	0.000110971	2.279989
4.99947	3.588E-10	2.304514	0.0999999	0.00011152	2.304514
5.19947	3.836E-10	2.329057	0.1	0.000112066	2.329057
5.39947	3.749E-10	2.353571	0.0999999	0.000112609	2.353571
5.59949	3.634E-10	2.378095	0.1	0.00011315	2.378095
5.79949	3.852E-10	2.402662	0.1	0.000113689	2.402662
5.99948	4.003E-10	2.427176	0.0999998	0.000114225	2.427176
6.19949	3.859E-10	2.451783	0.0999998	0.000114759	2.451783
6.39948	3.8E-10	2.476285	0.1	0.000115286	2.476285
6.59949	4.109E-10	2.500815	0.0999999	0.000115813	2.500815
6.79949	3.987E-10	2.525344	0.0999999	0.000116336	2.525344
6.99948	3.987E-10	2.549873	0.1	0.000116856	2.549873
7.19948	4.105E-10	2.574404	0.1	0.000117374	2.574404
7.39949	3.488E-10	2.633169	0.0999999	0.000117882	2.633169
7.59948	3.636E-10	2.65769	0.0999998	0.000118394	2.65769
7.79949	4.146E-10	2.682227	0.0999999	0.000118904	2.682227
7.99948	4.111E-10	2.706737	0.0999999	0.000119409	2.706737
8.19948	3.914E-10	2.731318	0.0999999	0.000119912	2.731318
8.39948	4.14E-10	2.755834	0.0999999	0.000120411	2.755834
8.59949	4.168E-10	2.780359	0.1	0.000120908	2.780359
8.79949	5.256E-10	2.804879	0.1	0.000121402	2.804879
8.99948	4.462E-10	2.829402	0.1000001	0.000121894	2.829402
9.1995	4.391E-10	2.853915	0.0999999	0.000122383	2.853915
9.39949	4.217E-10	2.878454	0.1	0.000122872	2.878454
9.59948	4.342E-10	2.902975	0.1	0.000123358	2.902975
9.7995	4.482E-10	2.927495	0.1000001	0.000123844	2.927495
9.99948	4.466E-10	2.952093	0.0999999	0.000124328	2.952093
9.99948	3.776E-10	2.97546	0.0999999	0.000124329	2.97546
9.7995	2.963E-10	2.999962	0.0999999	0.000123845	2.999962
9.59949	1.758E-10	3.024503	0.1	0.000123362	3.024503
9.39948	2.159E-10	3.049013	0.1000001	0.000122877	3.049013
9.19949	1.836E-10	3.073585	0.1	0.000122388	3.073585
8.99949	2.033E-10	3.130273	0.0999999	0.000121899	3.130273
8.7995	1.605E-10	3.15481	0.1000002	0.000121404	3.15481
8.59949	1.442E-10	3.179342	0.1000001	0.000120899	3.179342
8.39951	1.282E-10	3.203878	0.0999999	0.000120397	3.203878
8.19949	1.186E-10	3.22845	0.0999999	0.000119887	3.22845
7.99948	1.034E-10	3.252972	0.0999999	0.000119375	3.252972
7.79949	8.05E-11	3.277502	0.1	0.000118861	3.277502
7.59948	7.5E-11	3.302025	0.1000002	0.000118343	3.302025
7.39948	6.76E-11	3.326535	0.1	0.000117826	3.326535
7.19949	7.01E-11	3.351054	0.1000003	0.000117305	3.351054
6.99948	4.8E-11	3.375574	0.1	0.000116779	3.375574
6.79949	2.27E-11	3.400196	0.0999999	0.000116253	3.400196
6.5995	5.07E-11	3.42473	0.0999999	0.000115723	3.42473
6.39949	3.2E-11	3.449327	0.0999998	0.000115191	3.449327
6.19949	-1E-12	3.473861	0.0999999	0.000114655	3.473861
5.99948	-1.61E-11	3.49838	0.0999998	0.000114116	3.49838
5.79949	6.3E-12	3.52293	0.1000001	0.000113575	3.52293
5.5995	-4.5E-12	3.547441	0.0999999	0.000113032	3.547441
5.39949	-2.14E-11	3.571988	0.1000001	0.000112486	3.571988
5.19948	3.02E-11	3.620407	0.1000001	0.000111938	3.620407
4.99949	-1.72E-11	3.645003	0.1	0.000111387	3.645003
4.79948	-1.72E-11	3.669622	0.0999999	0.000110833	3.669622
4.5995	-2.92E-11	3.694151	0.1	0.000110278	3.694151
4.39947	-3.22E-11	3.720614	0.1000001	0.000109717	3.720614
4.19949	-4.85E-11	3.745144	0.0999999	0.000109158	3.745144
3.99949	-4.67E-11	3.769658	0.1000001	0.000108596	3.769658
3.79949	-6.27E-11	3.794185	0.1	0.000108033	3.794185
3.5995	-7.81E-11	3.818703	0.0999999	0.000107469	3.818703
3.39949	-8.6E-11	3.843236	0.1000001	0.000106904	3.843236
3.19949	-6.66E-11	3.867743	0.0999998	0.000106337	3.867743
2.99949	-8.24E-11	3.892265	0.1000001	0.000105773	3.892265
2.7995	-1.039E-10	3.916794	0.1	0.000105209	3.916794
2.59949	-9.44E-11	3.94134	0.0999999	0.000104644	3.94134
2.3995	-9.68E-11	3.965956	0.0999998	0.000104082	3.965956
2.19949	-1.117E-10	3.99051	0.0999998	0.000103518	3.99051
1.99948	-1.217E-10	4.015291	0.1	0.000102957	4.015291
1.79948	-1.139E-10	4.039815	0.0999998	0.000102397	4.039815
1.5995	-1.245E-10	4.064398	0.1	0.00010184	4.064398
1.39951	-1.253E-10	4.088929	0.0999999	0.000101281	4.088929
1.19949	-8.73E-11	4.137982	0.1	0.000100729	4.137982
0.99949	-1.233E-10	4.16251	0.0999998	0.000100175	4.16251
0.79949	-1.387E-10	4.187094	0.1000001	9.9624E-05	4.187094
0.5995	1.38E-11	4.211616	0.0999999	9.9074E-05	4.211616
0.3995	-1.269E-10	4.236184	0.1000002	9.8528E-05	4.236184
0.1995	-1.511E-10	4.260708	0.0999997	9.798E-05	4.260708
-0.0005	-1.382E-10	4.285172	0.0999998	9.7435E-05	4.285172
-0.2005	-1.474E-10	4.3097	0.0999999	9.6896E-05	4.3097
-0.40049	-1.699E-10	4.334215	0.1	9.6365E-05	4.334215
-0.6005	-1.748E-10	4.358738	0.1000002	9.584E-05	4.358738
-0.80051	-1.649E-10	4.383251	0.1	9.5324E-05	4.383251
-1.0005	-1.638E-10	4.407849	0.1000001	9.482E-05	4.407849
-1.2005	-1.968E-10	4.432365	0.1	9.4326E-05	4.432365
-1.4005	-1.958E-10	4.456995	0.1000001	9.3837E-05	4.456995
-1.60049	-1.828E-10	4.481517	0.1	9.3356E-05	4.481517
-1.8005	-1.974E-10	4.506068	0.1	9.2878E-05	4.506068
-2.0005	-2.124E-10	4.530603	0.0999999	9.24E-05	4.530603
-2.20051	-1.995E-10	4.555146	0.0999999	9.1923E-05	4.555146
-2.40051	-2.157E-10	4.579669	0.1000001	9.1444E-05	4.579669
-2.60049	-1.441E-10	4.646673	0.1	9.0967E-05	4.646673
-2.8005	-1.829E-10	4.671247	0.0999998	9.0486E-05	4.671247
-3.00049	-2.048E-10	4.695783	0.0999999	9.0007E-05	4.695783
-3.20049	-2.128E-10	4.720513	0.1	8.9525E-05	4.720513
-3.4005	-3.054E-10	4.745086	0.1	8.9041E-05	4.745086
-3.60049	-2.287E-10	4.769599	0.0999998	8.8558E-05	4.769599
-3.8005	-2.518E-10	4.794126	0.1	8.8073E-05	4.794126
-4.00049	-2.158E-10	4.821961	0.1000053	8.75059E-05	4.821961
-4.2005	-2.368E-10	4.846494	0.100005	8.70194E-05	4.846494
-4.4005	-2.306E-10	4.87101	0.1000055	8.65302E-05	4.87101
-4.60049	-2.527E-10	4.895558	0.100005	8.60409E-05	4.895558
-4.80049	-2.712E-10	4.920067	0.100005	8.55489E-05	4.920067
-5.00051	-2.385E-10	4.944622	0.1000049	8.50555E-05	4.944622
-5.2005	-2.507E-10	4.969237	0.1000048	8.45616E-05	4.969237
-5.40051	-2.748E-10	4.993768	0.1000057	8.40661E-05	4.993768
-5.60049	-2.736E-10	5.018563	0.100005	8.35675E-05	5.018563
-5.80051	-2.552E-10	5.043075	0.1000048	8.30686E-05	5.043075
-6.0005	-2.694E-10	5.067671	0.1000049	8.25669E-05	5.067671
-6.2005	-2.844E-10	5.092195	0.1000045	8.20628E-05	5.092195
-6.40049	-2.173E-10	5.145027	0.1000055	8.15612E-05	5.145027
-6.6005	-2.442E-10	5.169549	0.1000055	8.10545E-05	5.169549
-6.80048	-2.768E-10	5.194139	0.1000052	8.05463E-05	5.194139
-7.0005	-2.932E-10	5.21865	0.1000054	8.00359E-05	5.21865
-7.2005	-2.679E-10	5.243235	0.1000051	7.95243E-05	5.243235
-7.40049	-2.768E-10	5.267768	0.1000064	7.90104E-05	5.267768
-7.6005	-2.961E-10	5.292274	0.1000056	7.84935E-05	5.292274
-7.80048	-2.962E-10	5.316795	0.1000063	7.79754E-05	5.316795
-8.0005	-2.877E-10	5.3413	0.1000055	7.74556E-05	5.3413
-8.2005	-2.984E-10	5.36583	0.1000055	7.6933E-05	5.36583
-8.4005	-3.101E-10	5.390361	0.1000058	7.64082E-05	5.390361
-8.6005	-2.913E-10	5.414934	0.1000053	7.5881E-05	5.414934
-8.80049	-3.141E-10	5.439454	0.1000051	7.53531E-05	5.439454
-9.00051	-3.202E-10	5.464071	0.1000062	7.48222E-05	5.464071
-9.20049	-2.963E-10	5.488592	0.100006	7.42896E-05	5.488592
-9.4005	-3.165E-10	5.51312	0.1000056	7.37553E-05	5.51312
-9.6005	-3.267E-10	5.537649	0.1000063	7.322E-05	5.537649
-9.80049	-3.278E-10	5.562192	0.100006	7.26825E-05	5.562192
-10.00048	-3.159E-10	5.58669	0.1000063	7.21442E-05	5.58669
-10.2005	-2.444E-10	5.643067	0.100006	7.16119E-05	5.643067
-10.40049	-2.812E-10	5.667598	0.1000061	7.10688E-05	5.667598
-10.6005	-3.072E-10	5.692116	0.1000061	7.05218E-05	5.692116
-10.80048	-3.324E-10	5.716643	0.1000064	6.99743E-05	5.716643
-11.00049	-3.068E-10	5.741212	0.1000073	6.94239E-05	5.741212
-11.20049	-3.208E-10	5.765724	0.1000062	6.88712E-05	5.765724
-11.40049	-3.338E-10	5.790324	0.1000067	6.83152E-05	5.790324
-11.60049	-3.331E-10	5.814843	0.1000077	6.77585E-05	5.814843
-11.80049	-3.39E-10	5.839364	0.1000069	6.71987E-05	5.839364
-12.0005	-3.411E-10	5.863884	0.1000061	6.66349E-05	5.863884
#scan	iMeasureCycle=2	iMux=0	time=279.688	N=222	LocalTime=22/06/2023 07:55:31
#VGate(V)	IGate(A)	time(s)	VDrain(V)	IDrain(A)	time(s)
-12.00049	-8.51E-11	279.695511	0.1000051	6.67843E-05	279.695511
-11.80051	-1.74E-11	279.720384	0.1000062	6.73502E-05	279.720384
-11.60051	1E-12	279.746072	0.1000068	6.79121E-05	279.746072
-11.4005	3.02E-11	279.770586	0.1000063	6.84726E-05	279.770586
-11.2005	3.87E-11	279.795093	0.100006	6.90302E-05	279.795093
-11.00049	5.23E-11	279.819606	0.1000065	6.95853E-05	279.819606
-10.8005	7.6E-11	279.844174	0.1000066	7.01381E-05	279.844174
-10.60051	7.34E-11	279.868689	0.1000057	7.06891E-05	279.868689
-10.4005	6.66E-11	279.893184	0.100006	7.12373E-05	279.893184
-10.20049	2.353E-10	279.917701	0.1000063	7.17825E-05	279.917701
-10.0005	1.061E-10	279.94227	0.1000064	7.23282E-05	279.94227
-9.80049	1.017E-10	279.966815	0.1000057	7.28694E-05	279.966815
-9.60051	1.166E-10	279.991307	0.1000065	7.34099E-05	279.991307
-9.4005	1.283E-10	280.015855	0.1000062	7.39492E-05	280.015855
-9.2005	1.218E-10	280.040384	0.1000054	7.4484E-05	280.040384
-9.0005	1.216E-10	280.064918	0.1000058	7.50146E-05	280.064918
-8.80051	1.405E-10	280.08943	0.1000057	7.55427E-05	280.08943
-8.60052	1.48E-10	280.113966	0.1000056	7.60676E-05	280.113966
-8.40052	2.79E-11	280.138571	0.1000052	7.659E-05	280.138571
-8.20051	1.103E-10	280.163102	0.1000053	7.71108E-05	280.163102
-8.00051	1.553E-10	280.187663	0.1000051	7.76308E-05	280.187663
-7.80049	1.498E-10	280.212203	0.1000056	7.81477E-05	280.212203
-7.60051	1.222E-10	280.259326	0.100005	7.86605E-05	280.259326
-7.4005	1.407E-10	280.283839	0.1000058	7.91754E-05	280.283839
-7.20051	1.62E-10	280.308374	0.1000052	7.9688E-05	280.308374
-7.0005	1.713E-10	280.332881	0.1000055	8.01978E-05	280.332881
-6.8005	1.659E-10	280.357449	0.100005	8.07081E-05	280.357449
-6.60051	1.688E-10	280.381974	0.1000049	8.1215E-05	280.381974
-6.40051	1.874E-10	280.406604	0.1000048	8.17195E-05	280.406604
-6.20051	1.875E-10	280.431131	0.1000049	8.22242E-05	280.431131
-6.00051	1.862E-10	280.455673	0.1000048	8.27255E-05	280.455673
-5.80051	1.899E-10	280.480188	0.100005	8.3226E-05	280.480188
-5.6005	2.044E-10	280.5048	0.1000049	8.37239E-05	280.5048
-5.40051	2.036E-10	280.529329	0.100005	8.42224E-05	280.529329
-5.2005	1.97E-10	280.553865	0.1000054	8.47178E-05	280.553865
-5.00051	2.252E-10	280.578391	0.1000045	8.52104E-05	280.578391
-4.8005	2.229E-10	280.602901	0.100004	8.57031E-05	280.602901
-4.6005	2.113E-10	280.627416	0.1000054	8.61958E-05	280.627416
-4.40052	2.303E-10	280.651931	0.1000045	8.6685E-05	280.651931
-4.2005	2.351E-10	280.676466	0.1000046	8.71733E-05	280.676466
-4.0005	2.278E-10	280.700972	0.1000043	8.76604E-05	280.700972
-3.80051	1.782E-10	280.760532	0.1000043	8.81447E-05	280.760532
-3.60051	2.301E-10	280.785054	0.1000044	8.86294E-05	280.785054
-3.40051	2.244E-10	280.809579	0.1000047	8.91144E-05	280.809579
-3.2005	2.235E-10	280.834309	0.1000045	8.95971E-05	280.834309
-3.00051	2.453E-10	280.8589	0.1000038	9.00797E-05	280.8589
-2.80051	2.41E-10	280.883422	0.1000042	9.05618E-05	280.883422
-2.60051	2.457E-10	280.908016	0.1000048	9.10413E-05	280.908016
-2.40051	2.454E-10	280.932548	0.1000051	9.15218E-05	280.932548
-2.20051	2.602E-10	280.957196	0.100005	9.19995E-05	280.957196
-2.00052	2.575E-10	280.981716	0.1000045	9.24777E-05	280.981716
-1.80051	2.524E-10	281.006239	0.100004	9.29559E-05	281.006239
-1.6005	2.739E-10	281.03076	0.1000044	9.34373E-05	281.03076
-1.40052	2.814E-10	281.055278	0.1000036	9.39214E-05	281.055278
-1.20051	2.692E-10	281.079807	0.1000041	9.44128E-05	281.079807
-1.00051	2.728E-10	281.104347	0.1000043	9.49145E-05	281.104347
-0.80052	2.882E-10	281.128867	0.1000039	9.54239E-05	281.128867
-0.6005	2.774E-10	281.15338	0.1000045	9.59441E-05	281.15338
-0.40051	2.812E-10	281.177979	0.1000039	9.64726E-05	281.177979
-0.20052	2.971E-10	281.202493	0.1000042	9.70062E-05	281.202493
-0.00052	2.381E-10	281.262038	0.1000042	9.75404E-05	281.262038
0.19948	2.633E-10	281.286556	0.1000043	9.80863E-05	281.286556
0.3995	2.934E-10	281.311074	0.1000034	9.86308E-05	281.311074
0.5995	3.573E-10	281.335598	0.1000038	9.91788E-05	281.335598
0.79947	2.961E-10	281.360156	0.1000039	9.97279E-05	281.360156
0.99948	3.114E-10	281.384687	0.1000044	0.0001002782	281.384687
1.19948	3.149E-10	281.409309	0.1000044	0.0001008297	281.409309
1.39949	3.119E-10	281.433831	0.1000041	0.0001013839	281.433831
1.5995	3.104E-10	281.458392	0.1000041	0.0001019396	281.458392
1.79949	3.222E-10	281.482908	0.1000038	0.0001024947	281.482908
1.99949	3.283E-10	281.5075	0.1000035	0.0001030533	281.5075
2.19948	3.267E-10	281.532032	0.1000041	0.000103614	281.532032
2.39948	1.8E-10	281.55656	0.1000041	0.0001041746	281.55656
2.59949	2.626E-10	281.603525	0.0999998	0.000104809	281.603525
2.79948	3.111E-10	281.628037	0.0999999	0.000105371	281.628037
2.99948	3.28E-10	281.652589	0.1	0.000105933	281.652589
3.1995	3.194E-10	281.677106	0.1000001	0.000106495	281.677106
3.39948	3.315E-10	281.701636	0.1	0.000107059	281.701636
3.59948	2.551E-10	281.764749	0.1000003	0.000107613	281.764749
3.79948	3.252E-10	281.789304	0.0999999	0.000108175	281.789304
3.99949	3.143E-10	281.813829	0.0999999	0.000108737	281.813829
4.19947	3.27E-10	281.838347	0.0999999	0.000109296	281.838347
4.39948	3.461E-10	281.862915	0.0999998	0.000109851	281.862915
4.59948	3.372E-10	281.887439	0.0999999	0.000110407	281.887439
4.79948	3.442E-10	281.912024	0.0999999	0.000110958	281.912024
4.99948	3.546E-10	281.936536	0.1000003	0.000111508	281.936536
5.19948	3.585E-10	281.96111	0.1000001	0.000112055	281.96111
5.39948	3.595E-10	281.985633	0.1000002	0.000112601	281.985633
5.59949	3.558E-10	282.010209	0.1	0.000113143	282.010209
5.79949	3.813E-10	282.034735	0.0999999	0.000113681	282.034735
5.99947	3.744E-10	282.05924	0.0999999	0.000114216	282.05924
6.19948	3.537E-10	282.083763	0.1000001	0.000114748	282.083763
6.39948	3.807E-10	282.108305	0.1	0.000115278	282.108305
6.59949	3.896E-10	282.132832	0.1	0.000115804	282.132832
6.79949	3.703E-10	282.157391	0.0999999	0.000116326	282.157391
6.99947	3.807E-10	282.181952	0.1000002	0.00011685	282.181952
7.19948	3.992E-10	282.206456	0.1000001	0.000117367	282.206456
7.39947	3.273E-10	282.265284	0.0999998	0.000117878	282.265284
7.59949	3.637E-10	282.289807	0.1	0.000118391	282.289807
7.79949	3.922E-10	282.314338	0.1000001	0.000118899	282.314338
7.99948	3.801E-10	282.338845	0.1	0.000119406	282.338845
8.19947	3.788E-10	282.363538	0.1	0.000119909	282.363538
8.39948	4.037E-10	282.388058	0.1000002	0.000120411	282.388058
8.59948	3.936E-10	282.412656	0.0999999	0.000120906	282.412656
8.79949	4.027E-10	282.437178	0.1000001	0.000121403	282.437178
8.99948	4.05E-10	282.46175	0.1000001	0.000121893	282.46175
9.19948	4.095E-10	282.486263	0.0999999	0.000122381	282.486263
9.39949	4.141E-10	282.510872	0.1	0.000122873	282.510872
9.59948	4.059E-10	282.535395	0.1000001	0.00012336	282.535395
9.79949	4.216E-10	282.559846	0.1000001	0.000123848	282.559846
9.99949	4.294E-10	282.584365	0.1	0.000124331	282.584365
9.99947	3.548E-10	282.607722	0.0999999	0.000124331	282.607722
9.7995	2.944E-10	282.632239	0.1000001	0.000123852	282.632239
9.59948	2.42E-10	282.656771	0.0999998	0.000123367	282.656771
9.39949	1.964E-10	282.681278	0.1	0.000122885	282.681278
9.19949	1.904E-10	282.705803	0.0999999	0.000122395	282.705803
8.99949	2.284E-10	282.76702	0.1000001	0.000121902	282.76702
8.7995	1.604E-10	282.791546	0.0999999	0.000121409	282.791546
8.59949	1.349E-10	282.816064	0.1000001	0.000120905	282.816064
8.39951	1.387E-10	282.840824	0.0999999	0.000120399	282.840824
8.19949	1.187E-10	282.86539	0.1	0.000119892	282.86539
7.99949	9.42E-11	282.889919	0.0999999	0.000119381	282.889919
7.79949	9.37E-11	282.914521	0.0999999	0.000118867	282.914521
7.59949	7.9E-11	282.939069	0.1	0.000118348	282.939069
7.39948	-1.514E-10	282.963608	0.1	0.00011783	282.963608
7.19949	3.42E-11	282.988165	0.1000001	0.000117306	282.988165
6.99948	4.34E-11	283.012682	0.1000002	0.000116783	283.012682
6.79949	3.4E-11	283.037205	0.0999998	0.000116259	283.037205
6.59949	1.12E-11	283.061724	0.0999999	0.000115726	283.061724
6.39949	5.1E-12	283.086247	0.0999999	0.000115195	283.086247
6.19949	2.31E-11	283.11077	0.0999999	0.00011466	283.11077
5.99948	-2.7E-12	283.135279	0.0999999	0.000114121	283.135279
5.79949	-2.34E-11	283.159796	0.1	0.00011358	283.159796
5.5995	-4E-12	283.184374	0.1	0.000113038	283.184374
5.39949	-2.24E-11	283.20889	0.1000001	0.00011249	283.20889
5.19949	1.71E-11	283.26864	0.0999999	0.000111943	283.26864
4.99949	-2.8E-12	283.293173	0.0999999	0.000111392	283.293173
4.79949	-2.2E-11	283.317726	0.1	0.000110835	283.317726
4.5995	-4.59E-11	283.342259	0.1	0.00011028	283.342259
4.39949	-4.06E-11	283.366834	0.0999998	0.000109721	283.366834
4.19949	-3.75E-11	283.391374	0.1	0.000109158	283.391374
3.99949	-6.29E-11	283.415975	0.1	0.000108597	283.415975
3.79949	-6.77E-11	283.440515	0.0999999	0.000108035	283.440515
3.5995	-6.2E-11	283.465048	0.1000001	0.00010747	283.465048
3.39948	-7.56E-11	283.489667	0.1	0.000106904	283.489667
3.1995	-8.97E-11	283.514232	0.1000001	0.000106341	283.514232
2.99949	-9.49E-11	283.538765	0.0999998	0.000105774	283.538765
2.79949	-8.15E-11	283.563275	0.1000001	0.000105209	283.563275
2.59952	-1.052E-10	283.587777	0.1000002	0.000104646	283.587777
2.39949	-1.177E-10	283.612298	0.0999999	0.000104082	283.612298
2.1995	-9.34E-11	283.636809	0.0999999	0.000103519	283.636809
1.99949	-1.083E-10	283.661307	0.0999999	0.000102956	283.661307
1.79948	-1.27E-10	283.685835	0.0999999	0.000102398	283.685835
1.5995	-1.175E-10	283.710344	0.1	0.00010184	283.710344
1.3995	-6.23E-11	283.770331	0.0999999	0.000101288	283.770331
1.19949	-1.163E-10	283.794886	0.1000001	0.000100733	283.794886
0.99949	-1.25E-10	283.819405	0.0999998	0.000100179	283.819405
0.79948	-1.137E-10	283.843972	0.1000001	9.9628E-05	283.843972
0.59951	-1.373E-10	283.868543	0.1	9.9077E-05	283.868543
0.39951	-1.542E-10	283.893065	0.0999999	9.8527E-05	283.893065
0.19949	-1.409E-10	283.917678	0.1	9.7981E-05	283.917678
-0.00051	-1.632E-10	283.942155	0.1	9.7438E-05	283.942155
-0.20051	-1.62E-10	283.966684	0.1000001	9.6899E-05	283.966684
-0.4005	-1.698E-10	283.991258	0.0999999	9.6365E-05	283.991258
-0.60049	-1.656E-10	284.015846	0.0999998	9.5839E-05	284.015846
-0.80051	-1.749E-10	284.040361	0.1	9.5327E-05	284.040361
-1.0005	-1.914E-10	284.064897	0.1000001	9.4822E-05	284.064897
-1.20051	-1.731E-10	284.089415	0.0999999	9.4328E-05	284.089415
-1.4005	-1.87E-10	284.113957	0.1	9.3841E-05	284.113957
-1.6005	-7.72E-11	284.138482	0.1	9.3361E-05	284.138482
-1.8005	-1.713E-10	284.163027	0.0999998	9.2883E-05	284.163027
-2.00051	-1.809E-10	284.187582	0.0999998	9.2407E-05	284.187582
-2.2005	-1.975E-10	284.212107	0.1000001	9.1928E-05	284.212107
-2.40051	-1.454E-10	284.271699	0.1	9.1451E-05	284.271699
-2.6005	-1.707E-10	284.296235	0.0999999	9.0973E-05	284.296235
-2.8005	-1.951E-10	284.320791	0.1	9.0491E-05	284.320791
-3.00049	-2.179E-10	284.345342	0.1	9.001E-05	284.345342
-3.20051	-2.853E-10	284.369919	0.0999999	8.9528E-05	284.369919
-3.40051	-2.238E-10	284.394454	0.0999998	8.9045E-05	284.394454
-3.6005	-2.409E-10	284.419061	0.0999999	8.8564E-05	284.419061
-3.8005	-2.366E-10	284.443581	0.0999999	8.8078E-05	284.443581
-4.0005	-2.295E-10	284.468105	0.0999999	8.7591E-05	284.468105
-4.20051	-2.029E-10	284.496046	0.1000049	8.70268E-05	284.496046
-4.40052	-2.362E-10	284.520635	0.1000045	8.65401E-05	284.520635
-4.60048	-2.586E-10	284.545157	0.1000043	8.60492E-05	284.545157
-4.80049	-2.377E-10	284.569678	0.1000048	8.55585E-05	284.569678
-5.00051	-2.421E-10	284.594193	0.1000049	8.50653E-05	284.594193
-5.2005	-2.63E-10	284.618738	0.1000049	8.45715E-05	284.618738
-5.4005	-2.685E-10	284.64325	0.1000042	8.40753E-05	284.64325
-5.60049	-2.551E-10	284.667757	0.1000055	8.3578E-05	284.667757
-5.8005	-2.61E-10	284.692268	0.1000052	8.30794E-05	284.692268
-6.0005	-2.692E-10	284.716788	0.1000052	8.25785E-05	284.716788
-6.20049	-1.99E-10	284.776099	0.1000048	8.2078E-05	284.776099
-6.4005	-2.579E-10	284.800633	0.1000057	8.15741E-05	284.800633
-6.60051	-2.582E-10	284.825283	0.1000048	8.1066E-05	284.825283
-6.80049	-2.593E-10	284.849872	0.1000047	8.0558E-05	284.849872
-7.0005	-2.621E-10	284.874458	0.1000057	8.00483E-05	284.874458
-7.20049	-2.746E-10	284.898989	0.1000049	7.95362E-05	284.898989
-7.40049	-2.836E-10	284.92359	0.1000048	7.90223E-05	284.92359
-7.6005	-2.758E-10	284.948129	0.1000049	7.85056E-05	284.948129
-7.8005	-2.799E-10	284.972663	0.1000052	7.7988E-05	284.972663
-8.0005	-2.99E-10	284.997188	0.1000058	7.74678E-05	284.997188
-8.20051	-2.797E-10	285.021713	0.1000056	7.6946E-05	285.021713
-8.40049	-2.961E-10	285.046226	0.1000053	7.64214E-05	285.046226
-8.6005	-3.075E-10	285.070745	0.1000049	7.58938E-05	285.070745
-8.8005	-2.995E-10	285.09528	0.1000056	7.53657E-05	285.09528
-9.00049	-2.943E-10	285.119786	0.1000065	7.48355E-05	285.119786
-9.2005	-3.181E-10	285.144301	0.100006	7.43032E-05	285.144301
-9.4005	-3.155E-10	285.16881	0.1000062	7.37681E-05	285.16881
-9.6005	-3.016E-10	285.193485	0.1000059	7.32323E-05	285.193485
-9.80049	-3.07E-10	285.218005	0.1000057	7.26964E-05	285.218005
-10.0005	-2.536E-10	285.275151	0.100006	7.21641E-05	285.275151
-10.2005	-2.904E-10	285.299672	0.1000053	7.16221E-05	285.299672
-10.40048	-3.183E-10	285.324214	0.1000052	7.10796E-05	285.324214
-10.60051	-3.197E-10	285.348753	0.1000058	7.05334E-05	285.348753
-10.80049	-3.047E-10	285.37334	0.1000051	6.99847E-05	285.37334
-11.00048	-3.299E-10	285.397858	0.1000048	6.94345E-05	285.397858
-11.2005	-3.294E-10	285.42248	0.1000066	6.88824E-05	285.42248
-11.4005	-3.212E-10	285.447006	0.1000061	6.83262E-05	285.447006
-11.6005	-3.285E-10	285.471571	0.100006	6.77676E-05	285.471571
-11.8005	-3.335E-10	285.496088	0.1000063	6.72088E-05	285.496088
-12.00048	-3.409E-10	285.520664	0.1000066	6.6647E-05	285.520664
#scan	iMeasureCycle=3	iMux=0	time=319.72	N=222	LocalTime=22/06/2023 07:56:11
#VGate(V)	IGate(A)	time(s)	VDrain(V)	IDrain(A)	time(s)
-12.00048	-6.41E-11	319.727489	0.1000067	6.66847E-05	319.727489
-11.8005	-1.922E-10	319.752368	0.1000061	6.72489E-05	319.752368
-11.60051	-2.18E-11	319.777962	0.1000069	6.7811E-05	319.777962
-11.4005	3.37E-11	319.802493	0.1000066	6.83719E-05	319.802493
-11.2005	4.22E-11	319.827018	0.1000055	6.89301E-05	319.827018
-11.0005	3.27E-11	319.851549	0.1000069	6.94843E-05	319.851549
-10.80049	4.71E-11	319.876055	0.1000059	7.0038E-05	319.876055
-10.60051	8.18E-11	319.900598	0.1000064	7.05891E-05	319.900598
-10.40051	9.38E-11	319.925165	0.1000055	7.11371E-05	319.925165
-10.2005	6.74E-11	319.9497	0.1000061	7.16841E-05	319.9497
-10.00049	7.25E-11	319.974315	0.1000058	7.22282E-05	319.974315
-9.8005	1.056E-10	319.998926	0.1000057	7.27717E-05	319.998926
-9.60052	1.194E-10	320.023532	0.1000056	7.3311E-05	320.023532
-9.40051	9.9E-11	320.048047	0.1000054	7.38502E-05	320.048047
-9.2005	1.278E-10	320.072582	0.1000062	7.43869E-05	320.072582
-9.0005	1.184E-10	320.097105	0.1000048	7.49171E-05	320.097105
-8.80049	1.219E-10	320.121707	0.1000058	7.54464E-05	320.121707
-8.6005	1.517E-10	320.146414	0.1000053	7.59707E-05	320.146414
-8.40051	1.351E-10	320.170928	0.1000059	7.64939E-05	320.170928
-8.2005	1.221E-10	320.195443	0.1000055	7.70138E-05	320.195443
-8.0005	1.433E-10	320.219963	0.100005	7.75339E-05	320.219963
-7.8005	1.685E-10	320.244546	0.1000055	7.80513E-05	320.244546
-7.6005	1.111E-10	320.290291	0.100005	7.85657E-05	320.290291
-7.4005	1.202E-10	320.314838	0.1000055	7.90809E-05	320.314838
-7.20051	1.568E-10	320.33933	0.1000057	7.9593E-05	320.33933
-7.00051	1.729E-10	320.363852	0.1000049	8.01045E-05	320.363852
-6.80049	1.655E-10	320.38842	0.100005	8.06131E-05	320.38842
-6.60051	1.701E-10	320.412934	0.1000043	8.11205E-05	320.412934
-6.4005	1.653E-10	320.437451	0.1000052	8.16266E-05	320.437451
-6.20051	2.054E-10	320.461986	0.1000047	8.21303E-05	320.461986
-6.00052	1.982E-10	320.486588	0.1000047	8.26327E-05	320.486588
-5.8005	1.736E-10	320.511126	0.100005	8.31326E-05	320.511126
-5.60051	1.791E-10	320.535671	0.1000048	8.36315E-05	320.535671
-5.40052	2.098E-10	320.560223	0.1000047	8.41289E-05	320.560223
-5.20051	2.103E-10	320.584799	0.1000048	8.46248E-05	320.584799
-5.00052	2.011E-10	320.609322	0.1000044	8.51194E-05	320.609322
-4.8005	2.107E-10	320.633844	0.1000048	8.56117E-05	320.633844
-4.6005	2.134E-10	320.658366	0.100005	8.61037E-05	320.658366
-4.40051	2.19E-10	320.68288	0.1000042	8.65922E-05	320.68288
-4.2005	2.281E-10	320.7074	0.1000041	8.70823E-05	320.7074
-4.0005	2.286E-10	320.732	0.1000048	8.75704E-05	320.732
-3.8005	2.908E-10	320.791959	0.1000048	8.80527E-05	320.791959
-3.60049	2.412E-10	320.81651	0.1000051	8.85389E-05	320.81651
-3.4005	2.369E-10	320.841027	0.1000048	8.90227E-05	320.841027
-3.20051	2.583E-10	320.865617	0.1000049	8.95066E-05	320.865617
-3.0005	2.335E-10	320.890186	0.1000051	8.999E-05	320.890186
-2.80051	2.336E-10	320.914781	0.1000048	9.0471E-05	320.914781
-2.6005	2.609E-10	320.939312	0.1000047	9.09514E-05	320.939312
-2.40052	2.603E-10	320.963831	0.1000055	9.14309E-05	320.963831
-2.20051	2.544E-10	320.988451	0.1000051	9.19095E-05	320.988451
-2.00051	2.642E-10	321.012972	0.1000044	9.23866E-05	321.012972
-1.80052	2.513E-10	321.037533	0.1000043	9.28671E-05	321.037533
-1.6005	2.711E-10	321.062041	0.1000044	9.33478E-05	321.062041
-1.40052	2.88E-10	321.086577	0.1000047	9.38322E-05	321.086577
-1.2005	2.639E-10	321.1111	0.1000043	9.43232E-05	321.1111
-1.00051	2.641E-10	321.135623	0.100005	9.48239E-05	321.135623
-0.80052	1.776E-10	321.16015	0.1000041	9.53341E-05	321.16015
-0.60049	2.83E-10	321.18469	0.1000044	9.58527E-05	321.18469
-0.40051	2.8E-10	321.209205	0.1000042	9.63806E-05	321.209205
-0.20052	2.662E-10	321.233814	0.1000039	9.69154E-05	321.233814
-0.0005	2.327E-10	321.293558	0.1000041	9.74495E-05	321.293558
0.19948	2.642E-10	321.318096	0.1000036	9.79934E-05	321.318096
0.3995	2.829E-10	321.342613	0.1000042	9.85402E-05	321.342613
0.5995	3.019E-10	321.367139	0.1000037	9.9089E-05	321.367139
0.79948	2.93E-10	321.391701	0.1000037	9.96388E-05	321.391701
0.99949	2.75E-10	321.416209	0.1000036	0.0001001884	321.416209
1.19948	3.064E-10	321.440743	0.1000038	0.0001007413	321.440743
1.39948	3.43E-10	321.46526	0.1000039	0.0001012948	321.46526
1.59949	3.059E-10	321.489882	0.1000028	0.0001018499	321.489882
1.79948	2.835E-10	321.514404	0.1000032	0.0001024064	321.514404
1.99949	3.372E-10	321.53896	0.1000035	0.000102966	321.53896
2.19949	3.27E-10	321.563491	0.1000035	0.0001035266	321.563491
2.39949	3.26E-10	321.58807	0.1000033	0.0001040863	321.58807
2.59949	3.315E-10	321.612586	0.1000034	0.0001046487	321.612586
2.79948	3.032E-10	321.642136	0.0999998	0.000105289	321.642136
2.99948	3.546E-10	321.666651	0.1	0.00010585	321.666651
3.19949	3.342E-10	321.691181	0.0999999	0.000106414	321.691181
3.39948	3.147E-10	321.715698	0.0999998	0.000106976	321.715698
3.5995	3.453E-10	321.740225	0.1	0.000107537	321.740225
3.79949	2.892E-10	321.797887	0.1	0.000108093	321.797887
3.99948	3.232E-10	321.822423	0.1	0.000108655	321.822423
4.19949	3.541E-10	321.846936	0.0999999	0.000109212	321.846936
4.39947	3.442E-10	321.871458	0.1000001	0.000109769	321.871458
4.59949	3.247E-10	321.896019	0.0999998	0.000110325	321.896019
4.79948	3.62E-10	321.920541	0.1	0.00011088	321.920541
4.99948	3.758E-10	321.945152	0.1000001	0.00011143	321.945152
5.19948	3.507E-10	321.969783	0.1	0.000111979	321.969783
5.39949	3.493E-10	321.994319	0.1000001	0.000112524	321.994319
5.59949	3.763E-10	322.01898	0.1000001	0.000113064	322.01898
5.79948	3.73E-10	322.043513	0.0999997	0.000113604	322.043513
5.99948	3.734E-10	322.068026	0.0999999	0.00011414	322.068026
6.19948	3.653E-10	322.09256	0.1000001	0.000114674	322.09256
6.39947	3.766E-10	322.117075	0.1000001	0.000115205	322.117075
6.59948	3.847E-10	322.141608	0.0999999	0.000115732	322.141608
6.79949	3.857E-10	322.16613	0.0999999	0.000116255	322.16613
6.99948	3.952E-10	322.190665	0.1	0.000116777	322.190665
7.19948	6.157E-10	322.215167	0.1	0.000117293	322.215167
7.39947	3.987E-10	322.239696	0.1	0.00011781	322.239696
7.59949	3.374E-10	322.292464	0.1	0.000118318	322.292464
7.79949	3.731E-10	322.316995	0.1	0.00011883	322.316995
7.99948	3.915E-10	322.341518	0.1000001	0.000119336	322.341518
8.19948	4.045E-10	322.366075	0.1	0.000119838	322.366075
8.39949	3.987E-10	322.390652	0.0999999	0.000120337	322.390652
8.59948	3.933E-10	322.415183	0.1	0.000120837	322.415183
8.79948	4.005E-10	322.439694	0.1000001	0.000121332	322.439694
8.99948	4.132E-10	322.464208	0.1000001	0.00012182	322.464208
9.19948	4.196E-10	322.48881	0.0999999	0.000122309	322.48881
9.39947	4.03E-10	322.513326	0.1	0.000122802	322.513326
9.59947	4.027E-10	322.537854	0.1	0.000123288	322.537854
9.79949	4.254E-10	322.562418	0.0999999	0.000123775	322.562418
9.99949	4.001E-10	322.587005	0.0999999	0.00012426	322.587005
9.99948	3.385E-10	322.610355	0.1	0.00012426	322.610355
9.7995	2.611E-10	322.63486	0.1000001	0.000123776	322.63486
9.59948	2.454E-10	322.659376	0.0999999	0.000123294	322.659376
9.39949	2.06E-10	322.683899	0.1	0.000122809	322.683899
9.19949	1.766E-10	322.708399	0.1	0.000122318	322.708399
8.99948	1.747E-10	322.732915	0.0999999	0.00012183	322.732915
8.7995	1.282E-10	322.75743	0.1	0.000121334	322.75743
8.59949	1.547E-10	322.794727	0.1000002	0.000120833	322.794727
8.3995	1.162E-10	322.819267	0.0999999	0.000120328	322.819267
8.19949	1.111E-10	322.843775	0.1	0.000119817	322.843775
7.99949	1.068E-10	322.868308	0.1	0.000119303	322.868308
7.79949	7.36E-11	322.892878	0.1	0.000118788	322.892878
7.59948	4.66E-11	322.917485	0.1	0.000118274	322.917485
7.39948	7.96E-11	322.942002	0.0999999	0.000117756	322.942002
7.19949	6.72E-11	322.966649	0.1000001	0.000117232	322.966649
6.99949	3.45E-11	322.991251	0.1	0.000116708	322.991251
6.79949	4.5E-12	323.015768	0.0999999	0.00011618	323.015768
6.5995	3.55E-11	323.040303	0.1	0.000115649	323.040303
6.39948	2.71E-11	323.064825	0.1	0.000115116	323.064825
6.19949	-2.7E-12	323.089351	0.1	0.000114583	323.089351
5.99949	2.3E-12	323.11387	0.0999998	0.000114045	323.11387
5.7995	-1.06E-11	323.138388	0.0999999	0.000113502	323.138388
5.59951	-1.8E-11	323.162913	0.1	0.000112958	323.162913
5.39947	-3.9E-12	323.18742	0.0999999	0.000112412	323.18742
5.1995	-2.88E-11	323.211932	0.1	0.000111861	323.211932
4.99949	-5.55E-11	323.236437	0.1000001	0.000111307	323.236437
4.79948	2.3E-12	323.29822	0.1000002	0.000110754	323.29822
4.59949	-6.7E-12	323.322787	0.1	0.000110197	323.322787
4.39949	-8.4E-12	323.347314	0.0999999	0.000109638	323.347314
4.19949	-5.72E-11	323.371864	0.1	0.000109076	323.371864
3.99949	-7.47E-11	323.396458	0.1	0.000108513	323.396458
3.79949	-4.88E-11	323.421001	0.0999999	0.000107951	323.421001
3.5995	-5.01E-11	323.44551	0.1	0.000107387	323.44551
3.39949	-8.18E-11	323.470051	0.0999999	0.000106822	323.470051
3.19949	-8.83E-11	323.494654	0.1000001	0.000106256	323.494654
2.99949	-7.91E-11	323.519203	0.1	0.000105693	323.519203
2.7995	-8.92E-11	323.543734	0.1	0.000105128	323.543734
2.5995	-9.41E-11	323.568256	0.1000001	0.000104561	323.568256
2.39949	-9.13E-11	323.592827	0.0999997	0.000104	323.592827
2.1995	1.4E-10	323.617342	0.0999997	0.000103436	323.617342
1.9995	-9.75E-11	323.641849	0.1	0.000102875	323.641849
1.79949	-7.98E-11	323.666366	0.1	0.000102317	323.666366
1.5995	-1.165E-10	323.690878	0.0999999	0.000101756	323.690878
1.3995	-1.397E-10	323.715382	0.0999999	0.0001012	323.715382
1.19949	-1.243E-10	323.739897	0.1	0.000100645	323.739897
0.99949	-5.55E-11	323.800987	0.1	0.000100095	323.800987
0.79949	-9.8E-11	323.825567	0.0999999	9.9543E-05	323.825567
0.59951	-1.257E-10	323.850084	0.1	9.8994E-05	323.850084
0.39951	-1.358E-10	323.87462	0.0999999	9.8446E-05	323.87462
0.19949	-1.439E-10	323.899193	0.0999998	9.7899E-05	323.899193
-0.00051	-1.391E-10	323.923763	0.1000001	9.7356E-05	323.923763
-0.20051	-1.458E-10	323.94827	0.1000001	9.6818E-05	323.94827
-0.40049	-1.604E-10	323.972793	0.0999999	9.6284E-05	323.972793
-0.60049	-3.185E-10	323.99741	0.1	9.5759E-05	323.99741
-0.80051	-1.846E-10	324.022014	0.0999999	9.5245E-05	324.022014
-1.0005	-1.452E-10	324.046557	0.1	9.4741E-05	324.046557
-1.20051	-1.836E-10	324.071074	0.1000001	9.4245E-05	324.071074
-1.4005	-2.157E-10	324.095617	0.1	9.376E-05	324.095617
-1.6005	-1.916E-10	324.120119	0.0999999	9.3278E-05	324.120119
-1.80051	-1.756E-10	324.144825	0.0999999	9.2801E-05	324.144825
-2.00051	-2.081E-10	324.169433	0.0999999	9.2325E-05	324.169433
-2.2005	-2.122E-10	324.193958	0.1000002	9.1847E-05	324.193958
-2.4005	-2.109E-10	324.218497	0.0999999	9.1369E-05	324.218497
-2.6005	-1.968E-10	324.24302	0.1	9.089E-05	324.24302
-2.80051	-1.624E-10	324.300333	0.0999998	9.0411E-05	324.300333
-3.00049	-1.779E-10	324.324868	0.0999999	8.993E-05	324.324868
-3.20051	-2.062E-10	324.349413	0.0999999	8.9448E-05	324.349413
-3.4005	-2.286E-10	324.373952	0.1	8.8966E-05	324.373952
-3.60049	-2.017E-10	324.401859	0.100004	8.84038E-05	324.401859
-3.8005	-1.957E-10	324.426362	0.1000046	8.79194E-05	324.426362
-4.0005	-2.192E-10	324.450882	0.1000049	8.74342E-05	324.450882
-4.20049	-2.476E-10	324.475394	0.1000042	8.69476E-05	324.475394
-4.4005	-2.46E-10	324.500003	0.1000044	8.64586E-05	324.500003
-4.60049	-2.146E-10	324.52452	0.1000042	8.59698E-05	324.52452
-4.80049	-2.38E-10	324.549068	0.1000048	8.54789E-05	324.549068
-5.00051	-2.607E-10	324.573662	0.1000042	8.49849E-05	324.573662
-5.20049	-2.605E-10	324.598244	0.1000049	8.44923E-05	324.598244
-5.4005	-2.506E-10	324.622764	0.1000054	8.39972E-05	324.622764
-5.60049	-2.361E-10	324.647295	0.1000044	8.34987E-05	324.647295
-5.80049	-2.644E-10	324.671812	0.1000043	8.29996E-05	324.671812
-6.0005	-2.824E-10	324.696329	0.100005	8.24994E-05	324.696329
-6.2005	-2.571E-10	324.720836	0.1000051	8.19975E-05	324.720836
-6.40049	-2.689E-10	324.745363	0.1000045	8.14914E-05	324.745363
-6.60049	-2.165E-10	324.808828	0.1000047	8.09886E-05	324.808828
-6.80048	-2.478E-10	324.833518	0.1000052	8.04807E-05	324.833518
-7.00051	-2.628E-10	324.858052	0.1000046	7.99703E-05	324.858052
-7.2005	-2.588E-10	324.882597	0.1000053	7.94584E-05	324.882597
-7.40049	-2.499E-10	324.907169	0.1000053	7.89445E-05	324.907169
-7.60049	-2.716E-10	324.931739	0.1000059	7.84279E-05	324.931739
-7.80048	-3.008E-10	324.956248	0.1000054	7.79101E-05	324.956248
-8.0005	-2.816E-10	324.980723	0.100005	7.73896E-05	324.980723
-8.20049	-2.686E-10	325.005248	0.1000053	7.68671E-05	325.005248
-8.4005	-1.413E-10	325.029773	0.1000058	7.63436E-05	325.029773
-8.6005	-2.855E-10	325.054289	0.1000056	7.58159E-05	325.054289
-8.80049	-2.996E-10	325.078815	0.1000059	7.52883E-05	325.078815
-9.00049	-2.788E-10	325.103337	0.100006	7.47565E-05	325.103337
-9.2005	-2.774E-10	325.1279	0.1000056	7.42253E-05	325.1279
-9.40049	-3.106E-10	325.152529	0.1000068	7.36913E-05	325.152529
-9.6005	-3.126E-10	325.17704	0.1000066	7.31541E-05	325.17704
-9.80048	-3.045E-10	325.201576	0.1000057	7.26184E-05	325.201576
-10.00048	-2.989E-10	325.226084	0.1000066	7.20797E-05	325.226084
-10.2005	-3.06E-10	325.250672	0.100006	7.15397E-05	325.250672
-10.40049	-2.494E-10	325.307761	0.1000066	7.10039E-05	325.307761
-10.60049	-2.995E-10	325.332301	0.1000068	7.04575E-05	325.332301
-10.80048	-3.235E-10	325.356835	0.100007	6.99104E-05	325.356835
-11.00047	-3.12E-10	325.381348	0.1000069	6.93591E-05	325.381348
-11.2005	-4.335E-10	325.40593	0.1000068	6.88053E-05	325.40593
-11.4005	-3.297E-10	325.430449	0.1000054	6.82496E-05	325.430449
-11.6005	-3.351E-10	325.454962	0.1000066	6.76924E-05	325.454962
-11.80049	-3.412E-10	325.479549	0.100007	6.71328E-05	325.479549
-12.00048	-3.283E-10	325.504093	0.1000062	6.65699E-05	325.504093
