#scan	iMeasureCycle=1	iMux=0	time=0.038	N=222	LocalTime=22/06/2023 06:56:51
#VGate(V)	IGate(A)	time(s)	VDrain(V)	IDrain(A)	time(s)
-12.00051	-3.1617E-09	0.063755	0.1000072	6.52419E-05	0.063755
-11.8005	-2.9762E-09	0.088629	0.1000074	6.58126E-05	0.088629
-11.60052	-1.116E-09	0.11317	0.1000063	6.63812E-05	0.11317
-11.40052	-5.279E-10	0.137754	0.1000068	6.69473E-05	0.137754
-11.20052	-3.563E-10	0.162279	0.100007	6.75106E-05	0.162279
-11.00051	-2.171E-10	0.186803	0.1000066	6.80714E-05	0.186803
-10.8005	-1.55E-10	0.211336	0.1000062	6.86298E-05	0.211336
-10.60052	-9.94E-11	0.235853	0.1000059	6.91863E-05	0.235853
-10.40048	-8.83E-11	0.260383	0.1000063	6.97421E-05	0.260383
-10.20051	-5.72E-11	0.284914	0.1000068	7.02927E-05	0.284914
-10.0005	-1.97E-11	0.309425	0.1000057	7.08425E-05	0.309425
-9.80051	6.5E-12	0.333971	0.1000056	7.13906E-05	0.333971
-9.60054	2E-11	0.35849	0.1000068	7.1937E-05	0.35849
-9.40049	4.12E-11	0.383022	0.1000057	7.24803E-05	0.383022
-9.20049	5.5E-11	0.407535	0.1000073	7.30233E-05	0.407535
-9.00051	7.65E-11	0.432073	0.1000068	7.35594E-05	0.432073
-8.8005	6.5E-11	0.45659	0.1000064	7.40927E-05	0.45659
-8.60048	4.85E-11	0.481181	0.100006	7.46213E-05	0.481181
-8.40049	1.004E-10	0.505785	0.100007	7.51509E-05	0.505785
-8.2005	9.93E-11	0.530326	0.100006	7.56769E-05	0.530326
-8.00051	9.16E-11	0.554843	0.1000071	7.62022E-05	0.554843
-7.80049	1.117E-10	0.579379	0.100005	7.67227E-05	0.579379
-7.60051	-3.14E-11	0.627317	0.1000058	7.72407E-05	0.627317
-7.40049	1.161E-10	0.651924	0.1000058	7.77625E-05	0.651924
-7.20049	1.055E-10	0.67646	0.1000059	7.82813E-05	0.67646
-7.00051	1.079E-10	0.700967	0.1000057	7.87958E-05	0.700967
-6.80049	1.282E-10	0.72564	0.1000053	7.93104E-05	0.72564
-6.60049	1.567E-10	0.750166	0.1000054	7.98232E-05	0.750166
-6.4005	1.493E-10	0.774706	0.1000063	8.03347E-05	0.774706
-6.20051	1.359E-10	0.799382	0.1000049	8.08419E-05	0.799382
-6.00049	1.559E-10	0.823924	0.1000057	8.13499E-05	0.823924
-5.8005	1.731E-10	0.848434	0.1000058	8.1856E-05	0.848434
-5.6005	1.721E-10	0.872948	0.1000051	8.23586E-05	0.872948
-5.40049	1.732E-10	0.897462	0.1000056	8.28619E-05	0.897462
-5.20049	1.729E-10	0.921977	0.1000048	8.33621E-05	0.921977
-5.0005	1.807E-10	0.946506	0.1000051	8.38614E-05	0.946506
-4.8005	2.02E-10	0.971022	0.1000051	8.4361E-05	0.971022
-4.60049	2.035E-10	0.995643	0.1000048	8.48569E-05	0.995643
-4.4005	1.926E-10	1.020171	0.1000049	8.53518E-05	1.020171
-4.20051	2.08E-10	1.044715	0.1000048	8.58455E-05	1.044715
-4.0005	2.193E-10	1.069208	0.1000053	8.63411E-05	1.069208
-3.80049	1.742E-10	1.129356	0.1000054	8.68279E-05	1.129356
-3.60049	1.932E-10	1.153933	0.100005	8.73195E-05	1.153933
-3.40049	2.036E-10	1.178445	0.1000045	8.78096E-05	1.178445
-3.20051	2.126E-10	1.202982	0.100005	8.82989E-05	1.202982
-3.00051	2.324E-10	1.227537	0.1000048	8.8787E-05	1.227537
-2.80052	2.405E-10	1.252071	0.1000047	8.92731E-05	1.252071
-2.6005	2.334E-10	1.276592	0.1000039	8.97592E-05	1.276592
-2.40049	2.329E-10	1.301106	0.1000046	9.02459E-05	1.301106
-2.20051	2.439E-10	1.325648	0.1000046	9.07283E-05	1.325648
-2.00051	2.517E-10	1.350177	0.1000049	9.12134E-05	1.350177
-1.8005	2.731E-10	1.374696	0.1000045	9.16962E-05	1.374696
-1.60051	2.516E-10	1.399228	0.1000049	9.21835E-05	1.399228
-1.40052	2.532E-10	1.423755	0.1000036	9.26736E-05	1.423755
-1.20052	2.812E-10	1.448315	0.1000041	9.31695E-05	1.448315
-1.00052	2.824E-10	1.472876	0.1000047	9.36762E-05	1.472876
-0.80051	2.731E-10	1.497585	0.1000042	9.41914E-05	1.497585
-0.60048	2.655E-10	1.522131	0.1000048	9.47173E-05	1.522131
-0.40051	2.926E-10	1.546661	0.1000042	9.52513E-05	1.546661
-0.20051	3.146E-10	1.571197	0.1000044	9.57928E-05	1.571197
-0.00051	2.573E-10	1.630177	0.1000038	9.63307E-05	1.630177
0.19949	2.835E-10	1.654706	0.1000044	9.68815E-05	1.654706
0.3995	2.765E-10	1.679206	0.1000035	9.74343E-05	1.679206
0.59951	2.88E-10	1.703724	0.100004	9.79885E-05	1.703724
0.7995	3.174E-10	1.72829	0.1000038	9.8544E-05	1.72829
0.9995	3.041E-10	1.752826	0.1000031	9.91013E-05	1.752826
1.19949	3.991E-10	1.777334	0.1000042	9.96597E-05	1.777334
1.39949	3.154E-10	1.801991	0.1000043	0.0001002224	1.801991
1.59952	3.464E-10	1.82655	0.100004	0.000100785	1.82655
1.79948	3.451E-10	1.85107	0.1000043	0.0001013485	1.85107
1.9995	3.227E-10	1.875607	0.1000044	0.0001019158	1.875607
2.19949	3.342E-10	1.90011	0.1000042	0.000102481	1.90011
2.39951	3.431E-10	1.924723	0.1000041	0.0001030486	1.924723
2.59949	3.448E-10	1.949256	0.1000041	0.0001036161	1.949256
2.79949	3.542E-10	1.973856	0.1000046	0.0001041871	1.973856
2.99949	1.646E-10	2.020919	0.1	0.000104826	2.020919
3.19948	3.283E-10	2.045456	0.1	0.000105397	2.045456
3.39947	3.469E-10	2.069964	0.1	0.000105967	2.069964
3.59949	2.798E-10	2.133284	0.0999999	0.000106526	2.133284
3.79946	3.087E-10	2.157876	0.1	0.000107095	2.157876
3.99948	3.169E-10	2.182401	0.0999998	0.000107664	2.182401
4.19949	3.505E-10	2.20693	0.1000002	0.000108228	2.20693
4.39949	3.665E-10	2.231594	0.1000001	0.000108795	2.231594
4.59947	3.407E-10	2.256134	0.1	0.000109355	2.256134
4.7995	3.453E-10	2.280648	0.1	0.000109912	2.280648
4.9995	3.748E-10	2.305181	0.1	0.000110471	2.305181
5.19947	3.762E-10	2.329725	0.0999999	0.000111022	2.329725
5.39946	3.713E-10	2.354274	0.0999999	0.000111576	2.354274
5.59949	3.77E-10	2.37879	0.0999999	0.000112122	2.37879
5.7995	3.686E-10	2.403319	0.1000001	0.000112668	2.403319
5.99949	3.844E-10	2.427822	0.1	0.000113211	2.427822
6.1995	4.008E-10	2.452359	0.0999998	0.000113748	2.452359
6.39949	3.791E-10	2.476938	0.1	0.000114285	2.476938
6.5995	3.603E-10	2.501422	0.1	0.000114819	2.501422
6.79948	3.961E-10	2.525939	0.1000001	0.000115347	2.525939
6.99947	4.167E-10	2.550476	0.1000002	0.000115874	2.550476
7.19948	3.992E-10	2.57499	0.1	0.000116398	2.57499
7.39946	3.565E-10	2.628919	0.1000001	0.000116916	2.628919
7.59948	3.792E-10	2.653514	0.1000001	0.000117433	2.653514
7.79948	3.995E-10	2.678031	0.1	0.000117948	2.678031
7.99949	3.9E-10	2.702558	0.0999998	0.00011846	2.702558
8.19948	4.066E-10	2.727134	0.0999999	0.00011897	2.727134
8.39949	4.258E-10	2.751765	0.0999998	0.000119472	2.751765
8.59949	4.131E-10	2.776278	0.1000001	0.000119976	2.776278
8.79949	3.926E-10	2.800795	0.1	0.000120477	2.800795
8.99948	4.234E-10	2.825349	0.1000001	0.00012097	2.825349
9.19948	4.452E-10	2.849902	0.1	0.000121467	2.849902
9.39947	4.184E-10	2.874412	0.0999999	0.000121963	2.874412
9.5995	4.131E-10	2.898931	0.1	0.000122457	2.898931
9.79948	4.344E-10	2.923437	0.0999999	0.000122949	2.923437
9.99949	4.341E-10	2.947969	0.1	0.000123437	2.947969
9.99948	3.886E-10	2.971315	0.1	0.000123438	2.971315
9.7995	2.958E-10	2.995859	0.0999999	0.00012295	2.995859
9.59948	2.524E-10	3.020459	0.1000001	0.000122461	3.020459
9.39951	2.188E-10	3.044988	0.1	0.000121972	3.044988
9.1995	1.969E-10	3.069501	0.0999997	0.000121475	3.069501
8.9995	1.973E-10	3.0942	0.0999998	0.000120978	3.0942
8.79952	1.843E-10	3.135545	0.0999998	0.000120477	3.135545
8.59949	1.346E-10	3.160132	0.1	0.00011997	3.160132
8.3995	2.618E-10	3.184667	0.1000001	0.000119457	3.184667
8.19949	1.519E-10	3.209205	0.1000001	0.000118943	3.209205
7.99949	1.084E-10	3.233769	0.0999999	0.000118424	3.233769
7.79951	1.042E-10	3.258303	0.1	0.000117905	3.258303
7.5995	9.06E-11	3.282817	0.0999997	0.00011738	3.282817
7.39949	7.93E-11	3.30734	0.1000001	0.000116856	3.30734
7.19949	6.99E-11	3.331874	0.1	0.000116328	3.331874
6.9995	5.57E-11	3.356388	0.0999999	0.000115796	3.356388
6.79949	2.92E-11	3.3809	0.1	0.000115263	3.3809
6.59949	3.13E-11	3.405419	0.1	0.000114727	3.405419
6.39949	-1.825E-10	3.429929	0.1000001	0.000114188	3.429929
6.19949	1E-13	3.454458	0.0999999	0.000113646	3.454458
5.9995	-2.59E-11	3.479023	0.1	0.000113101	3.479023
5.79951	-8.8E-12	3.503716	0.0999999	0.000112554	3.503716
5.59953	3.1E-12	3.528264	0.0999998	0.000112002	3.528264
5.39948	-1.27E-11	3.552786	0.0999999	0.000111447	3.552786
5.1995	-4.35E-11	3.577325	0.1	0.000110891	3.577325
4.9995	3.36E-11	3.636735	0.1	0.000110334	3.636735
4.79951	-4.43E-11	3.661375	0.1	0.000109773	3.661375
4.59949	-3.06E-11	3.685891	0.0999998	0.000109206	3.685891
4.39948	-1.73E-11	3.71043	0.1	0.000108641	3.71043
4.19949	-4.89E-11	3.734993	0.1000001	0.000108074	3.734993
3.99949	-7.42E-11	3.759539	0.0999999	0.000107504	3.759539
3.79949	-5.92E-11	3.784054	0.0999999	0.000106933	3.784054
3.5995	-5.59E-11	3.808618	0.1000002	0.000106361	3.808618
3.39949	-7.23E-11	3.833147	0.1000001	0.000105788	3.833147
3.19949	-9.64E-11	3.857685	0.1	0.000105214	3.857685
2.99948	-8.75E-11	3.8822	0.1	0.000104644	3.8822
2.79949	-8.84E-11	3.906738	0.1	0.000104071	3.906738
2.5995	-1.055E-10	3.931243	0.1000001	0.000103499	3.931243
2.3995	-1.034E-10	3.955781	0.1	0.000102928	3.955781
2.19949	-1.187E-10	3.980298	0.1000001	0.000102358	3.980298
1.9995	-1.194E-10	4.004928	0.1	0.000101788	4.004928
1.79947	-1.142E-10	4.029449	0.1	0.00010122	4.029449
1.5995	-1.128E-10	4.053982	0.0999999	0.000100655	4.053982
1.3995	-1.365E-10	4.0785	0.1000001	0.000100091	4.0785
1.1995	-9.72E-11	4.138306	0.0999999	9.9532E-05	4.138306
0.99951	-1.054E-10	4.162966	0.1	9.8971E-05	4.162966
0.79948	-1.215E-10	4.18748	0.0999999	9.841E-05	4.18748
0.5995	-1.333E-10	4.212015	0.1000001	9.7852E-05	4.212015
0.39952	-1.494E-10	4.236583	0.1000001	9.7298E-05	4.236583
0.19949	-1.598E-10	4.261126	0.0999999	9.6744E-05	4.261126
-0.00051	-1.459E-10	4.285635	0.1	9.6194E-05	4.285635
-0.2005	-1.572E-10	4.310161	0.1000001	9.5648E-05	4.310161
-0.40047	-1.641E-10	4.334703	0.0999999	9.5107E-05	4.334703
-0.60049	-1.779E-10	4.359246	0.0999999	9.4576E-05	4.359246
-0.80051	-1.838E-10	4.383769	0.0999999	9.4057E-05	4.383769
-1.00051	-1.768E-10	4.408317	0.1	9.3548E-05	4.408317
-1.2005	-1.702E-10	4.432835	0.1	9.3046E-05	4.432835
-1.40052	-2.048E-10	4.457379	0.1000001	9.2554E-05	4.457379
-1.6005	-2.033E-10	4.481962	0.1000001	9.2069E-05	4.481962
-1.8005	-1.841E-10	4.506641	0.1	9.1585E-05	4.506641
-2.0005	-1.959E-10	4.531185	0.1000001	9.1101E-05	4.531185
-2.20049	-2.114E-10	4.555711	0.1	9.0618E-05	4.555711
-2.4005	-2.208E-10	4.58025	0.1000002	9.0136E-05	4.58025
-2.60049	-1.547E-10	4.640004	0.1	8.965E-05	4.640004
-2.8005	-1.884E-10	4.664565	0.1000001	8.9165E-05	4.664565
-3.00049	-1.848E-10	4.689094	0.0999999	8.8677E-05	4.689094
-3.2005	-2.014E-10	4.713624	0.1000001	8.819E-05	4.713624
-3.40048	-1.897E-10	4.741537	0.1000051	8.76221E-05	4.741537
-3.60049	-2.146E-10	4.766065	0.1000046	8.71332E-05	4.766065
-3.80049	-2.213E-10	4.790596	0.1000049	8.66421E-05	4.790596
-4.00051	-2.258E-10	4.815175	0.1000056	8.61518E-05	4.815175
-4.20048	-3.608E-10	4.839734	0.1000057	8.56571E-05	4.839734
-4.4005	-2.621E-10	4.864254	0.1000052	8.51619E-05	4.864254
-4.60048	-2.358E-10	4.888808	0.1000055	8.46676E-05	4.888808
-4.80047	-2.496E-10	4.913328	0.1000041	8.41684E-05	4.913328
-5.0005	-2.638E-10	4.937854	0.1000044	8.36702E-05	4.937854
-5.2005	-2.704E-10	4.96238	0.1000046	8.31691E-05	4.96238
-5.40049	-2.557E-10	4.986916	0.1000053	8.26689E-05	4.986916
-5.6005	-2.503E-10	5.011529	0.1000049	8.21653E-05	5.011529
-5.80049	-2.848E-10	5.036043	0.1000054	8.16599E-05	5.036043
-6.00049	-2.925E-10	5.060568	0.1000051	8.11526E-05	5.060568
-6.20049	-2.527E-10	5.085091	0.1000051	8.06431E-05	5.085091
-6.4005	-2.184E-10	5.144489	0.1000052	8.01358E-05	5.144489
-6.60051	-2.5E-10	5.169051	0.1000051	7.96221E-05	5.169051
-6.80048	-2.601E-10	5.193567	0.1000056	7.91072E-05	5.193567
-7.00051	-2.859E-10	5.218106	0.1000054	7.85906E-05	5.218106
-7.20047	-2.912E-10	5.242671	0.1000059	7.80734E-05	5.242671
-7.4005	-2.739E-10	5.267201	0.1000062	7.75534E-05	5.267201
-7.6005	-2.706E-10	5.291712	0.1000051	7.7029E-05	5.291712
-7.80051	-3E-10	5.316241	0.1000059	7.65054E-05	5.316241
-8.00049	-3.009E-10	5.340772	0.1000059	7.598E-05	5.340772
-8.20049	-2.891E-10	5.365325	0.1000054	7.545E-05	5.365325
-8.4005	-2.906E-10	5.389847	0.1000056	7.49206E-05	5.389847
-8.6005	-3.1E-10	5.414382	0.1000055	7.43882E-05	5.414382
-8.80048	-3.199E-10	5.438904	0.1000058	7.38534E-05	5.438904
-9.00047	-3.1E-10	5.463488	0.100006	7.33178E-05	5.463488
-9.20049	-3.135E-10	5.488066	0.1000063	7.27798E-05	5.488066
-9.40051	-3.253E-10	5.512764	0.1000054	7.22379E-05	5.512764
-9.60048	-3.149E-10	5.537304	0.1000061	7.16955E-05	5.537304
-9.80049	-3.34E-10	5.561831	0.1000058	7.1154E-05	5.561831
-10.00049	-3.402E-10	5.586373	0.1000061	7.06082E-05	5.586373
-10.20049	-2.766E-10	5.643426	0.1000068	7.00708E-05	5.643426
-10.40049	-3.138E-10	5.667942	0.1000068	6.95214E-05	5.667942
-10.60049	-3.104E-10	5.692472	0.100007	6.89707E-05	5.692472
-10.80048	-3.327E-10	5.716993	0.1000066	6.84162E-05	5.716993
-11.00048	-3.444E-10	5.741587	0.1000062	6.78588E-05	5.741587
-11.20051	-3.314E-10	5.766097	0.1000065	6.73001E-05	5.766097
-11.40051	-3.234E-10	5.79062	0.1000066	6.67408E-05	5.79062
-11.6005	-3.466E-10	5.815115	0.1000063	6.61763E-05	5.815115
-11.80049	-3.709E-10	5.839664	0.1000058	6.56108E-05	5.839664
-12.00048	-3.447E-10	5.864179	0.100007	6.50442E-05	5.864179
#scan	iMeasureCycle=2	iMux=0	time=279.78	N=222	LocalTime=22/06/2023 07:01:30
#VGate(V)	IGate(A)	time(s)	VDrain(V)	IDrain(A)	time(s)
-12.00048	-1.078E-10	279.787496	0.1000064	6.50996E-05	279.787496
-11.80051	-9.3E-12	279.812381	0.1000064	6.56697E-05	279.812381
-11.60051	-6.3E-12	279.838502	0.1000072	6.62384E-05	279.838502
-11.40051	-5.9E-12	279.863029	0.1000058	6.68023E-05	279.863029
-11.2005	1.49E-11	279.887545	0.1000063	6.73668E-05	279.887545
-11.00049	5.25E-11	279.912092	0.1000063	6.79275E-05	279.912092
-10.80048	7.59E-11	279.936602	0.1000059	6.84864E-05	279.936602
-10.60051	4.78E-11	279.961126	0.1000067	6.90433E-05	279.961126
-10.40052	4.63E-11	279.985625	0.1000063	6.9597E-05	279.985625
-10.20051	8.61E-11	280.010222	0.1000062	7.01505E-05	280.010222
-10.0005	1.013E-10	280.034812	0.1000072	7.07009E-05	280.034812
-9.80049	7.59E-11	280.059332	0.1000061	7.12486E-05	280.059332
-9.6005	1.067E-10	280.083874	0.1000057	7.17949E-05	280.083874
-9.40048	1.014E-10	280.108483	0.1000058	7.23395E-05	280.108483
-9.20049	1.063E-10	280.133011	0.1000063	7.28824E-05	280.133011
-9.00051	1.235E-10	280.157526	0.1000067	7.34187E-05	280.157526
-8.8005	1.217E-10	280.182026	0.100006	7.39536E-05	280.182026
-8.60049	1.065E-10	280.206546	0.1000056	7.44846E-05	280.206546
-8.40052	1.297E-10	280.23108	0.1000057	7.50136E-05	280.23108
-8.20048	1.673E-10	280.255599	0.1000053	7.55406E-05	280.255599
-8.00049	1.433E-10	280.280116	0.1000054	7.60667E-05	280.280116
-7.80048	1.207E-10	280.304685	0.1000062	7.65897E-05	280.304685
-7.60049	2.195E-10	280.351478	0.1000054	7.71094E-05	280.351478
-7.40048	1.699E-10	280.376002	0.1000058	7.76307E-05	280.376002
-7.2005	1.597E-10	280.400528	0.1000057	7.81505E-05	280.400528
-7.0005	1.412E-10	280.425048	0.1000052	7.86673E-05	280.425048
-6.80049	1.655E-10	280.449632	0.1000061	7.91834E-05	280.449632
-6.60051	2.022E-10	280.474142	0.1000056	7.96961E-05	280.474142
-6.4005	1.819E-10	280.498671	0.1000052	8.02078E-05	280.498671
-6.20051	1.749E-10	280.523183	0.1000055	8.07178E-05	280.523183
-6.00051	1.841E-10	280.547794	0.1000058	8.12266E-05	280.547794
-5.8005	2.153E-10	280.57232	0.1000057	8.17333E-05	280.57232
-5.60049	2.099E-10	280.596846	0.1000057	8.22378E-05	280.596846
-5.40052	1.899E-10	280.621368	0.1000057	8.2742E-05	280.621368
-5.20049	1.838E-10	280.645924	0.1000056	8.32426E-05	280.645924
-5.00052	2.278E-10	280.670436	0.1000055	8.37434E-05	280.670436
-4.80047	2.347E-10	280.695027	0.1000052	8.42416E-05	280.695027
-4.60049	2.052E-10	280.719546	0.1000049	8.47382E-05	280.719546
-4.40049	2.183E-10	280.744082	0.1000056	8.52352E-05	280.744082
-4.20051	2.237E-10	280.768597	0.1000062	8.57295E-05	280.768597
-4.00051	2.29E-10	280.79311	0.1000053	8.62232E-05	280.79311
-3.80051	1.787E-10	280.853018	0.100005	8.67122E-05	280.853018
-3.6005	2.163E-10	280.877531	0.1000041	8.72034E-05	280.877531
-3.4005	2.046E-10	280.902067	0.1000042	8.76948E-05	280.902067
-3.2005	2.096E-10	280.926556	0.1000041	8.81836E-05	280.926556
-3.0005	2.456E-10	280.951138	0.1000044	8.86723E-05	280.951138
-2.80051	2.624E-10	280.975655	0.1000044	8.91594E-05	280.975655
-2.60051	2.38E-10	281.000181	0.1000048	8.96472E-05	281.000181
-2.40051	2.377E-10	281.024761	0.1000049	9.01329E-05	281.024761
-2.20051	2.54E-10	281.049389	0.1000051	9.06174E-05	281.049389
-2.00052	2.719E-10	281.073903	0.1000042	9.11016E-05	281.073903
-1.80051	2.628E-10	281.098443	0.1000028	9.15852E-05	281.098443
-1.60051	2.662E-10	281.122967	0.1000041	9.20732E-05	281.122967
-1.40052	2.651E-10	281.147499	0.1000049	9.25632E-05	281.147499
-1.2005	2.744E-10	281.172021	0.1000045	9.30611E-05	281.172021
-1.0005	2.993E-10	281.196535	0.1000036	9.35664E-05	281.196535
-0.80052	2.704E-10	281.221066	0.1000041	9.40812E-05	281.221066
-0.60049	2.537E-10	281.245586	0.1000038	9.46075E-05	281.245586
-0.40051	3E-10	281.270093	0.100004	9.51421E-05	281.270093
-0.20049	3.138E-10	281.29461	0.1000039	9.56833E-05	281.29461
-0.00053	2.485E-10	281.354907	0.100004	9.62244E-05	281.354907
0.19948	2.676E-10	281.379425	0.100004	9.67758E-05	281.379425
0.3995	2.748E-10	281.40394	0.1000035	9.73297E-05	281.40394
0.5995	2.91E-10	281.428472	0.1000037	9.7884E-05	281.428472
0.79949	2.889E-10	281.453041	0.1000038	9.84408E-05	281.453041
0.9995	3.211E-10	281.477574	0.1000035	9.89976E-05	281.477574
1.19949	3.029E-10	281.502077	0.1000032	9.95584E-05	281.502077
1.39948	2.871E-10	281.526596	0.1000037	0.0001001205	281.526596
1.59951	3.21E-10	281.551184	0.1000036	0.0001006829	281.551184
1.79949	3.441E-10	281.575714	0.1000038	0.0001012477	281.575714
1.99949	3.166E-10	281.600228	0.100004	0.0001018138	281.600228
2.19949	2.928E-10	281.624771	0.1000033	0.0001023809	281.624771
2.39948	3.385E-10	281.649274	0.1000034	0.000102949	281.649274
2.5995	3.508E-10	281.673819	0.1000034	0.00010352	281.673819
2.79949	3.26E-10	281.698383	0.1000042	0.0001040902	281.698383
2.99947	3.276E-10	281.722924	0.1000037	0.0001046583	281.722924
3.19948	4.756E-10	281.75258	0.0999999	0.000105305	281.75258
3.39948	3.555E-10	281.777097	0.1000002	0.000105876	281.777097
3.5995	3.549E-10	281.80161	0.0999999	0.000106446	281.80161
3.79949	2.85E-10	281.859128	0.1000001	0.000107007	281.859128
3.9995	3.187E-10	281.883658	0.0999999	0.000107577	281.883658
4.19949	3.349E-10	281.9082	0.1	0.000108145	281.9082
4.39949	3.515E-10	281.932723	0.1	0.000108709	281.932723
4.5995	3.586E-10	281.957311	0.1000001	0.000109272	281.957311
4.79948	3.515E-10	281.981817	0.1	0.000109833	281.981817
4.99948	3.518E-10	282.00636	0.1000001	0.00011039	282.00636
5.19948	3.688E-10	282.030925	0.0999999	0.000110946	282.030925
5.39949	3.856E-10	282.055516	0.1	0.000111497	282.055516
5.59948	3.661E-10	282.080029	0.0999999	0.000112046	282.080029
5.79949	3.53E-10	282.104647	0.1	0.000112593	282.104647
5.99948	3.953E-10	282.129178	0.0999999	0.000113137	282.129178
6.19948	4E-10	282.153703	0.1	0.000113676	282.153703
6.39947	3.704E-10	282.178225	0.1000001	0.000114213	282.178225
6.59949	3.835E-10	282.202737	0.0999998	0.000114747	282.202737
6.79948	3.927E-10	282.227276	0.0999999	0.000115278	282.227276
6.99949	3.046E-10	282.251788	0.0999998	0.000115806	282.251788
7.19948	3.844E-10	282.276309	0.1000001	0.000116332	282.276309
7.39947	3.912E-10	282.300816	0.1	0.000116852	282.300816
7.59948	3.247E-10	282.358232	0.0999998	0.000117367	282.358232
7.7995	3.738E-10	282.382782	0.1	0.000117882	282.382782
7.99949	3.877E-10	282.407294	0.1	0.000118397	282.407294
8.19949	3.835E-10	282.431905	0.0999999	0.000118904	282.431905
8.39949	3.912E-10	282.456469	0.1	0.000119412	282.456469
8.59948	4.066E-10	282.480985	0.0999999	0.000119916	282.480985
8.7995	3.76E-10	282.505484	0.1	0.000120418	282.505484
8.99947	4.087E-10	282.529975	0.1000002	0.000120915	282.529975
9.19949	4.271E-10	282.554583	0.1000001	0.000121409	282.554583
9.39948	4.017E-10	282.579106	0.0999999	0.000121907	282.579106
9.59948	3.969E-10	282.603627	0.1000001	0.000122398	282.603627
9.7995	4.205E-10	282.62815	0.0999998	0.00012289	282.62815
9.9995	4.269E-10	282.65269	0.1	0.000123381	282.65269
9.99947	3.695E-10	282.676061	0.0999997	0.000123379	282.676061
9.7995	2.753E-10	282.700642	0.0999998	0.000122892	282.700642
9.59948	2.334E-10	282.725149	0.1	0.000122403	282.725149
9.39949	2.115E-10	282.749679	0.0999999	0.000121911	282.749679
9.19949	1.845E-10	282.774178	0.0999999	0.000121416	282.774178
8.9995	1.774E-10	282.798698	0.0999999	0.000120919	282.798698
8.7995	1.892E-10	282.859381	0.1	0.000120417	282.859381
8.59948	1.116E-10	282.883908	0.1	0.000119908	282.883908
8.39951	1.189E-10	282.908407	0.0999998	0.000119399	282.908407
8.19949	1.312E-10	282.932917	0.0999999	0.000118884	282.932917
7.99949	8.31E-11	282.957486	0.0999999	0.000118365	282.957486
7.79949	6.05E-11	282.982011	0.0999999	0.000117844	282.982011
7.59948	7.93E-11	283.006518	0.0999999	0.000117321	283.006518
7.39948	6E-11	283.031103	0.0999999	0.000116795	283.031103
7.1995	4.98E-11	283.055702	0.1	0.000116265	283.055702
6.99948	3.47E-11	283.080236	0.0999999	0.000115736	283.080236
6.7995	6.7E-12	283.104753	0.0999998	0.000115203	283.104753
6.5995	2.85E-11	283.129283	0.1	0.000114666	283.129283
6.39948	1.975E-10	283.153803	0.0999998	0.000114127	283.153803
6.19952	3.5E-11	283.178316	0.1	0.000113584	283.178316
5.9995	-1E-12	283.202817	0.0999998	0.000113038	283.202817
5.7995	-6.1E-12	283.227334	0.1000001	0.000112491	283.227334
5.59951	-8E-13	283.251819	0.1	0.000111942	283.251819
5.3995	-2.1E-12	283.276348	0.0999999	0.000111389	283.276348
5.1995	-3.33E-11	283.300856	0.1	0.000110831	283.300856
4.9995	1.06E-11	283.361152	0.1	0.000110274	283.361152
4.79949	-2.17E-11	283.385705	0.1000001	0.000109712	283.385705
4.59949	-2.99E-11	283.410227	0.0999999	0.000109149	283.410227
4.3995	-3.45E-11	283.434768	0.0999999	0.000108583	283.434768
4.1995	-4.48E-11	283.459337	0.0999999	0.000108013	283.459337
3.99951	-6.51E-11	283.483853	0.1	0.000107444	283.483853
3.79949	-6.5E-11	283.508354	0.0999999	0.000106873	283.508354
3.5995	-4.73E-11	283.532878	0.0999999	0.000106301	283.532878
3.39948	-7.46E-11	283.557586	0.1	0.000105729	283.557586
3.1995	-9.06E-11	283.582103	0.0999998	0.000105156	283.582103
2.99951	-9.4E-11	283.606626	0.1000001	0.000104584	283.606626
2.7995	-8.06E-11	283.63114	0.0999998	0.000104011	283.63114
2.59949	-3.499E-10	283.655679	0.1	0.000103439	283.655679
2.39948	-1.389E-10	283.680209	0.1	0.000102869	283.680209
2.19949	-1.362E-10	283.704789	0.0999997	0.000102298	283.704789
1.99951	-1.048E-10	283.729301	0.0999998	0.000101729	283.729301
1.79949	-1.07E-10	283.753823	0.0999999	0.000101163	283.753823
1.59951	-1.441E-10	283.77834	0.1000002	0.000100598	283.77834
1.39951	-1.302E-10	283.802867	0.1	0.000100032	283.802867
1.1995	-8.6E-11	283.858456	0.0999999	9.9473E-05	283.858456
0.99949	-1.379E-10	283.882978	0.1	9.891E-05	283.882978
0.7995	-1.389E-10	283.90749	0.1000001	9.8353E-05	283.90749
0.59948	-1.262E-10	283.93202	0.0999998	9.7793E-05	283.93202
0.39951	-1.332E-10	283.956597	0.1000001	9.7239E-05	283.956597
0.1995	-1.573E-10	283.981128	0.1000002	9.6685E-05	283.981128
-0.00051	-1.737E-10	284.005631	0.0999999	9.6135E-05	284.005631
-0.20051	-1.478E-10	284.030162	0.1	9.5587E-05	284.030162
-0.40049	-1.413E-10	284.054762	0.1	9.5049E-05	284.054762
-0.6005	-1.723E-10	284.079329	0.0999999	9.4518E-05	284.079329
-0.80051	-2.026E-10	284.10393	0.0999999	9.3996E-05	284.10393
-1.00052	-1.608E-10	284.128456	0.0999999	9.3489E-05	284.128456
-1.20049	-1.635E-10	284.152989	0.1	9.2991E-05	284.152989
-1.4005	-2.011E-10	284.177526	0.0999999	9.2502E-05	284.177526
-1.60049	-1.987E-10	284.202047	0.0999999	9.2015E-05	284.202047
-1.8005	-1.939E-10	284.226576	0.0999999	9.1531E-05	284.226576
-2.00052	-1.905E-10	284.25119	0.1000001	9.1047E-05	284.25119
-2.20049	-2.045E-10	284.275719	0.1000001	9.0564E-05	284.275719
-2.40049	-2.102E-10	284.300246	0.1	9.008E-05	284.300246
-2.6005	-1.551E-10	284.357979	0.1	8.9597E-05	284.357979
-2.80049	-2.016E-10	284.382589	0.0999999	8.9111E-05	284.382589
-3.00049	-1.981E-10	284.407119	0.0999997	8.8623E-05	284.407119
-3.20053	-1.761E-10	284.435039	0.1000048	8.80581E-05	284.435039
-3.40048	-2.199E-10	284.459622	0.1000039	8.75705E-05	284.459622
-3.60049	-2.461E-10	284.484149	0.1000045	8.70816E-05	284.484149
-3.80048	-2.094E-10	284.508681	0.1000043	8.65913E-05	284.508681
-4.0005	-2.071E-10	284.533195	0.1000053	8.60993E-05	284.533195
-4.20052	-2.368E-10	284.557811	0.1000048	8.56069E-05	284.557811
-4.40051	-1.922E-10	284.58233	0.1000052	8.51128E-05	284.58233
-4.60048	-2.241E-10	284.606874	0.100004	8.46158E-05	284.606874
-4.80051	-2.318E-10	284.63139	0.1000049	8.41202E-05	284.63139
-5.00051	-2.342E-10	284.655993	0.1000057	8.36217E-05	284.655993
-5.20049	-2.41E-10	284.680499	0.1000057	8.31208E-05	284.680499
-5.4005	-2.591E-10	284.705069	0.1000059	8.26197E-05	284.705069
-5.60049	-2.505E-10	284.729577	0.1000057	8.21171E-05	284.729577
-5.80048	-2.292E-10	284.754052	0.1000056	8.1612E-05	284.754052
-6.0005	-2.636E-10	284.778576	0.1000059	8.11042E-05	284.778576
-6.2005	-2.812E-10	284.803088	0.1000056	8.05956E-05	284.803088
-6.40049	-2.007E-10	284.867603	0.1000051	8.00875E-05	284.867603
-6.60052	-2.427E-10	284.892197	0.1000049	7.95741E-05	284.892197
-6.80049	-2.393E-10	284.916699	0.1000036	7.90594E-05	284.916699
-7.00048	-2.651E-10	284.941261	0.1000055	7.85446E-05	284.941261
-7.2005	-2.834E-10	284.965817	0.1000065	7.80266E-05	284.965817
-7.40051	-2.691E-10	284.990337	0.1000057	7.75062E-05	284.990337
-7.6005	-2.604E-10	285.014853	0.1000046	7.69826E-05	285.014853
-7.80048	-2.914E-10	285.039432	0.1000059	7.64598E-05	285.039432
-8.00048	-3.072E-10	285.063999	0.1000059	7.59323E-05	285.063999
-8.20049	-2.791E-10	285.088525	0.1000051	7.54052E-05	285.088525
-8.40048	-2.74E-10	285.113035	0.1000061	7.48757E-05	285.113035
-8.6005	-3.045E-10	285.137543	0.1000061	7.4342E-05	285.137543
-8.80048	-3.161E-10	285.162073	0.1000065	7.38084E-05	285.162073
-9.00048	-2.905E-10	285.18659	0.1000056	7.32706E-05	285.18659
-9.20049	-2.998E-10	285.211124	0.1000067	7.27332E-05	285.211124
-9.40048	-3.182E-10	285.235636	0.1000062	7.21913E-05	285.235636
-9.60051	-2.987E-10	285.260174	0.1000053	7.16493E-05	285.260174
-9.80048	-3.167E-10	285.284681	0.1000055	7.11088E-05	285.284681
-10.00047	-3.202E-10	285.309214	0.1000061	7.05637E-05	285.309214
-10.2005	-2.586E-10	285.367728	0.1000062	7.00253E-05	285.367728
-10.4005	-2.731E-10	285.392259	0.1000067	6.94762E-05	285.392259
-10.60049	-3.171E-10	285.416784	0.100006	6.89239E-05	285.416784
-10.80048	-3.159E-10	285.441295	0.1000067	6.83696E-05	285.441295
-11.00049	-3.17E-10	285.465869	0.1000064	6.78136E-05	285.465869
-11.20049	-3.29E-10	285.490382	0.1000066	6.72556E-05	285.490382
-11.40049	-3.111E-10	285.514905	0.1000071	6.6695E-05	285.514905
-11.6005	-3.263E-10	285.539417	0.1000059	6.61303E-05	285.539417
-11.80049	-3.596E-10	285.564032	0.1000062	6.55654E-05	285.564032
-12.00047	-3.35E-10	285.588566	0.1000067	6.49979E-05	285.588566
#scan	iMeasureCycle=3	iMux=0	time=319.808	N=222	LocalTime=22/06/2023 07:02:10
#VGate(V)	IGate(A)	time(s)	VDrain(V)	IDrain(A)	time(s)
-12.00049	1.739E-10	319.815483	0.1000074	6.5043E-05	319.815483
-11.80048	7.7E-12	319.840338	0.1000066	6.56133E-05	319.840338
-11.6005	-3.3E-12	319.865925	0.1000063	6.61805E-05	319.865925
-11.40049	4.01E-11	319.890468	0.100006	6.67465E-05	319.890468
-11.20049	6.72E-11	319.915005	0.1000067	6.73101E-05	319.915005
-11.0005	5.96E-11	319.939516	0.100007	6.78714E-05	319.939516
-10.80049	6.95E-11	319.964026	0.1000058	6.8429E-05	319.964026
-10.60049	-5.68E-11	319.988558	0.1000068	6.89859E-05	319.988558
-10.40049	6.92E-11	320.013083	0.1000068	6.95413E-05	320.013083
-10.2005	1.112E-10	320.03762	0.1000057	7.00924E-05	320.03762
-10.00048	8.68E-11	320.062126	0.1000059	7.06419E-05	320.062126
-9.80049	7.89E-11	320.086659	0.1000065	7.11922E-05	320.086659
-9.60052	1.241E-10	320.111249	0.1000062	7.17369E-05	320.111249
-9.40051	1.3E-10	320.135828	0.100006	7.22832E-05	320.135828
-9.20051	1.195E-10	320.160347	0.1000054	7.28244E-05	320.160347
-9.00051	1.163E-10	320.184867	0.1000061	7.33616E-05	320.184867
-8.8005	1.396E-10	320.209386	0.100007	7.38971E-05	320.209386
-8.60051	1.503E-10	320.233916	0.1000058	7.44263E-05	320.233916
-8.40051	1.44E-10	320.258433	0.1000058	7.49558E-05	320.258433
-8.20051	1.493E-10	320.282949	0.1000051	7.54828E-05	320.282949
-8.0005	1.514E-10	320.307564	0.1000055	7.60086E-05	320.307564
-7.8005	1.548E-10	320.332098	0.1000054	7.65319E-05	320.332098
-7.60049	1.179E-10	320.378693	0.1000047	7.70515E-05	320.378693
-7.4005	1.416E-10	320.40323	0.1000056	7.75734E-05	320.40323
-7.2005	1.759E-10	320.427771	0.1000052	7.80927E-05	320.427771
-7.00048	1.774E-10	320.452384	0.1000053	7.86105E-05	320.452384
-6.80049	1.678E-10	320.476949	0.1000054	7.91246E-05	320.476949
-6.6005	1.818E-10	320.501466	0.1000052	7.96381E-05	320.501466
-6.40049	1.778E-10	320.525986	0.1000053	8.01498E-05	320.525986
-6.20049	1.884E-10	320.550504	0.1000056	8.066E-05	320.550504
-6.0005	2.058E-10	320.575007	0.1000053	8.11679E-05	320.575007
-5.80051	2.074E-10	320.599491	0.1000052	8.16738E-05	320.599491
-5.60052	1.938E-10	320.624025	0.1000046	8.2178E-05	320.624025
-5.4005	1.982E-10	320.648536	0.1000047	8.26806E-05	320.648536
-5.20049	2.183E-10	320.673067	0.100005	8.31839E-05	320.673067
-5.00053	2.346E-10	320.69766	0.1000048	8.36831E-05	320.69766
-4.8005	2.133E-10	320.722192	0.1000049	8.41818E-05	320.722192
-4.60049	2.112E-10	320.746701	0.100005	8.46795E-05	320.746701
-4.40051	2.441E-10	320.77123	0.1000047	8.51743E-05	320.77123
-4.20048	2.47E-10	320.79581	0.1000041	8.56692E-05	320.79581
-4.00051	2.24E-10	320.820344	0.1000054	8.61623E-05	320.820344
-3.8005	1.957E-10	320.875881	0.1000037	8.66513E-05	320.875881
-3.60051	2.14E-10	320.900495	0.1000052	8.71426E-05	320.900495
-3.4005	2.248E-10	320.925042	0.1000046	8.76328E-05	320.925042
-3.20052	2.38E-10	320.949572	0.1000044	8.81208E-05	320.949572
-3.00052	2.481E-10	320.974145	0.1000043	8.86099E-05	320.974145
-2.80051	2.472E-10	320.998685	0.1000042	8.90973E-05	320.998685
-2.60051	2.648E-10	321.023206	0.1000039	8.95826E-05	321.023206
-2.40051	2.487E-10	321.047731	0.1000046	9.00694E-05	321.047731
-2.2005	2.579E-10	321.072246	0.1000039	9.05535E-05	321.072246
-2.00049	2.845E-10	321.096772	0.1000045	9.1038E-05	321.096772
-1.8005	2.595E-10	321.121631	0.1000047	9.15226E-05	321.121631
-1.60052	2.43E-10	321.14615	0.1000041	9.20096E-05	321.14615
-1.4005	2.804E-10	321.170693	0.100004	9.24992E-05	321.170693
-1.2005	2.9E-10	321.195215	0.1000039	9.29944E-05	321.195215
-1.0005	3.814E-10	321.219764	0.100004	9.34996E-05	321.219764
-0.80052	2.841E-10	321.244277	0.1000047	9.40149E-05	321.244277
-0.60049	3.016E-10	321.268804	0.1000045	9.45412E-05	321.268804
-0.4005	3.047E-10	321.293314	0.1000046	9.50754E-05	321.293314
-0.20049	2.9E-10	321.317842	0.1000051	9.5617E-05	321.317842
-0.00053	2.392E-10	321.366279	0.1000047	9.61565E-05	321.366279
0.19948	1.664E-10	321.39085	0.1000042	9.67101E-05	321.39085
0.3995	2.743E-10	321.415449	0.1000041	9.7263E-05	321.415449
0.59949	2.89E-10	321.439996	0.1000044	9.7818E-05	321.439996
0.79947	2.668E-10	321.466304	0.1000042	9.83727E-05	321.466304
0.99948	2.917E-10	321.490828	0.1000041	9.89319E-05	321.490828
1.19949	3.188E-10	321.515367	0.1000043	9.94929E-05	321.515367
1.39948	3.083E-10	321.539891	0.1000032	0.0001000512	321.539891
1.59949	2.927E-10	321.5644	0.1000038	0.000100616	321.5644
1.79947	3.094E-10	321.588913	0.1000036	0.0001011801	321.588913
1.99947	3.383E-10	321.613532	0.1000033	0.0001017461	321.613532
2.19949	3.258E-10	321.638071	0.1000034	0.0001023144	321.638071
2.3995	3.142E-10	321.662583	0.100004	0.0001028832	321.662583
2.59948	3.344E-10	321.6871	0.1000038	0.0001034532	321.6871
2.79947	3.453E-10	321.71162	0.1000035	0.0001040222	321.71162
2.99947	3.389E-10	321.736156	0.1000034	0.0001045919	321.736156
3.19948	3.087E-10	321.765745	0.1000001	0.000105239	321.765745
3.3995	3.375E-10	321.790262	0.0999999	0.000105807	321.790262
3.5995	3.563E-10	321.814798	0.0999998	0.000106379	321.814798
3.79947	3.449E-10	321.839352	0.1000001	0.000106946	321.839352
3.99949	2.943E-10	321.886122	0.1000001	0.000107509	321.886122
4.19949	3.494E-10	321.910665	0.0999999	0.000108078	321.910665
4.39947	3.453E-10	321.935202	0.1	0.000108644	321.935202
4.5995	3.457E-10	321.959745	0.1000001	0.000109208	321.959745
4.79948	3.433E-10	321.984314	0.0999997	0.000109766	321.984314
4.9995	3.523E-10	322.008934	0.1	0.000110324	322.008934
5.19949	3.63E-10	322.033461	0.1	0.00011088	322.033461
5.39949	3.65E-10	322.057984	0.1	0.000111431	322.057984
5.59949	3.729E-10	322.082496	0.1000001	0.000111982	322.082496
5.79949	3.638E-10	322.107098	0.1000002	0.000112528	322.107098
5.99948	3.655E-10	322.131681	0.0999999	0.000113072	322.131681
6.19948	4.054E-10	322.156204	0.1	0.000113611	322.156204
6.39946	3.738E-10	322.180733	0.1	0.00011415	322.180733
6.59949	3.558E-10	322.205244	0.0999998	0.000114685	322.205244
6.79948	3.943E-10	322.229776	0.1	0.000115216	322.229776
6.99947	4.116E-10	322.254276	0.0999998	0.000115746	322.254276
7.19948	3.868E-10	322.278802	0.1000001	0.00011627	322.278802
7.39949	3.861E-10	322.303311	0.0999998	0.000116791	322.303311
7.59946	3.969E-10	322.327856	0.0999999	0.00011731	322.327856
7.79949	3.183E-10	322.385169	0.1	0.000117819	322.385169
7.99949	3.946E-10	322.409681	0.0999999	0.000118334	322.409681
8.19947	4.029E-10	322.434234	0.0999999	0.000118845	322.434234
8.39948	3.77E-10	322.458986	0.0999999	0.000119352	322.458986
8.59947	3.893E-10	322.483551	0.0999999	0.000119854	322.483551
8.79949	4.095E-10	322.508093	0.1000001	0.000120357	322.508093
8.99949	4.031E-10	322.532609	0.1	0.000120853	322.532609
9.19951	4.039E-10	322.557128	0.0999999	0.00012135	322.557128
9.39949	4.109E-10	322.58164	0.1000001	0.000121848	322.58164
9.59948	4.014E-10	322.606193	0.0999999	0.000122343	322.606193
9.7995	5.47E-10	322.630676	0.0999999	0.000122833	322.630676
9.99949	4.604E-10	322.655195	0.1	0.000123322	322.655195
9.99949	3.763E-10	322.678565	0.1000001	0.000123325	322.678565
9.79949	2.618E-10	322.703065	0.1	0.000122836	322.703065
9.59949	2.446E-10	322.727584	0.0999998	0.000122346	322.727584
9.3995	2.293E-10	322.7521	0.1	0.000121856	322.7521
9.1995	1.902E-10	322.77662	0.1000002	0.00012136	322.77662
8.99949	4.65E-11	322.801184	0.0999998	0.000120863	322.801184
8.79951	1.395E-10	322.825701	0.0999999	0.000120365	322.825701
8.59948	1.625E-10	322.882337	0.1	0.000119848	322.882337
8.3995	1.24E-10	322.906854	0.1	0.000119337	322.906854
8.19948	1.071E-10	322.931396	0.1	0.000118822	322.931396
7.99948	9.41E-11	322.955924	0.1000001	0.000118302	322.955924
7.79948	7.82E-11	322.980509	0.1	0.000117784	322.980509
7.59946	4.99E-11	323.005034	0.1000001	0.000117259	323.005034
7.3995	5.61E-11	323.029573	0.1	0.000116732	323.029573
7.19949	5.39E-11	323.054087	0.1	0.000116204	323.054087
6.99949	4.79E-11	323.078615	0.1	0.000115673	323.078615
6.7995	1.66E-11	323.103133	0.1	0.00011514	323.103133
6.5995	1E-11	323.127752	0.1	0.000114605	323.127752
6.3995	2.84E-11	323.152277	0.0999999	0.000114066	323.152277
6.19949	5.7E-12	323.17681	0.1000001	0.000113521	323.17681
5.99948	-1.39E-11	323.201319	0.0999999	0.000112975	323.201319
5.79949	-1.6E-11	323.225954	0.1	0.000112428	323.225954
5.5995	-5.8E-12	323.250479	0.1	0.000111876	323.250479
5.39949	-2.5E-12	323.275014	0.1	0.000111321	323.275014
5.19952	-3.84E-11	323.299529	0.0999999	0.000110764	323.299529
4.9995	-4.47E-11	323.324102	0.0999999	0.000110207	323.324102
4.79948	6.3E-12	323.372274	0.1000002	0.000109644	323.372274
4.59951	-1.81E-11	323.396863	0.0999998	0.00010908	323.396863
4.39948	-3.85E-11	323.421504	0.1	0.000108513	323.421504
4.19952	-6.3E-11	323.446045	0.1000002	0.000107943	323.446045
3.99948	-4.44E-11	323.472289	0.0999999	0.000107375	323.472289
3.79952	-5.67E-11	323.496811	0.1000001	0.000106802	323.496811
3.59948	-7.95E-11	323.52134	0.1000001	0.00010623	323.52134
3.3995	-7.9E-11	323.545856	0.0999998	0.000105658	323.545856
3.1995	-8.19E-11	323.570372	0.0999999	0.000105083	323.570372
2.9995	-7E-11	323.594897	0.1	0.000104509	323.594897
2.7995	-8.91E-11	323.619508	0.0999999	0.000103936	323.619508
2.59951	-1.229E-10	323.644148	0.1	0.000103365	323.644148
2.3995	-9.23E-11	323.668674	0.0999999	0.000102795	323.668674
2.1995	-8.55E-11	323.693207	0.0999999	0.000102224	323.693207
1.99949	-1.235E-10	323.717727	0.1000002	0.000101655	323.717727
1.79949	-1.237E-10	323.742268	0.1	0.000101088	323.742268
1.59951	-1.174E-10	323.766777	0.0999999	0.000100521	323.766777
1.3995	-1.323E-10	323.791301	0.1	9.9959E-05	323.791301
1.1995	-1.269E-10	323.815861	0.1000001	9.9395E-05	323.815861
0.9995	-1.397E-10	323.840404	0.1	9.8833E-05	323.840404
0.79949	-8.81E-11	323.889819	0.1000001	9.8276E-05	323.889819
0.59952	-1.186E-10	323.914335	0.0999998	9.7716E-05	323.914335
0.39951	-1.272E-10	323.93889	0.0999998	9.7161E-05	323.93889
0.19951	-1.629E-10	323.963407	0.1000002	9.6606E-05	323.963407
-0.00049	-1.651E-10	323.987978	0.1	9.6058E-05	323.987978
-0.2005	-1.327E-10	324.012506	0.0999999	9.5512E-05	324.012506
-0.4005	-2.7E-11	324.037025	0.1000001	9.4972E-05	324.037025
-0.60049	-1.55E-10	324.061569	0.1	9.4444E-05	324.061569
-0.8005	-1.692E-10	324.086082	0.1000001	9.3925E-05	324.086082
-1.00049	-1.595E-10	324.110648	0.0999999	9.3415E-05	324.110648
-1.2005	-1.65E-10	324.135309	0.1	9.2916E-05	324.135309
-1.40048	-1.902E-10	324.159862	0.1	9.2426E-05	324.159862
-1.6005	-2.027E-10	324.184394	0.0999999	9.1938E-05	324.184394
-1.80049	-1.784E-10	324.208942	0.1	9.1455E-05	324.208942
-2.00048	-1.798E-10	324.23346	0.1	9.0971E-05	324.23346
-2.2005	-2.042E-10	324.257992	0.1	9.0487E-05	324.257992
-2.4005	-2.04E-10	324.282507	0.0999999	9.0003E-05	324.282507
-2.60049	-2.08E-10	324.307029	0.1000001	8.9517E-05	324.307029
-2.80049	-2.164E-10	324.331541	0.0999998	8.9031E-05	324.331541
-3.0005	-1.833E-10	324.394977	0.1000043	8.84674E-05	324.394977
-3.20051	-1.911E-10	324.420055	0.1000041	8.79807E-05	324.420055
-3.4005	-2.224E-10	324.444582	0.1000051	8.74924E-05	324.444582
-3.60049	-2.121E-10	324.469172	0.1000045	8.70024E-05	324.469172
-3.80048	-2.135E-10	324.493746	0.1000044	8.65117E-05	324.493746
-4.00051	-2.25E-10	324.51826	0.1000044	8.60189E-05	324.51826
-4.20048	-2.365E-10	324.542776	0.1000042	8.55258E-05	324.542776
-4.4005	-2.451E-10	324.567309	0.1000051	8.50311E-05	324.567309
-4.60049	-2.237E-10	324.591819	0.1000046	8.45357E-05	324.591819
-4.80048	-2.334E-10	324.616434	0.1000047	8.40384E-05	324.616434
-5.00053	-2.552E-10	324.641038	0.1000052	8.35396E-05	324.641038
-5.20048	-2.62E-10	324.665606	0.1000048	8.30394E-05	324.665606
-5.40051	-2.278E-10	324.690135	0.1000049	8.25372E-05	324.690135
-5.6005	-2.487E-10	324.714639	0.1000053	8.20338E-05	324.714639
-5.80048	-2.645E-10	324.739181	0.100005	8.15277E-05	324.739181
-6.0005	-2.768E-10	324.76369	0.1000052	8.10207E-05	324.76369
-6.20051	-2.664E-10	324.78822	0.1000052	8.05123E-05	324.78822
-6.40049	-2.498E-10	324.812795	0.1000045	8.00006E-05	324.812795
-6.60048	-2.698E-10	324.837329	0.1000049	7.94878E-05	324.837329
-6.80048	-2.157E-10	324.896076	0.1000049	7.89763E-05	324.896076
-7.00048	-2.621E-10	324.920859	0.1000058	7.84608E-05	324.920859
-7.2005	-2.632E-10	324.945407	0.1000057	7.79423E-05	324.945407
-7.40048	-2.624E-10	324.969922	0.1000057	7.74202E-05	324.969922
-7.60048	-2.705E-10	324.994485	0.1000052	7.68981E-05	324.994485
-7.80047	-2.867E-10	325.018996	0.1000055	7.63728E-05	325.018996
-8.00047	-2.836E-10	325.043509	0.1000059	7.58467E-05	325.043509
-8.20049	-2.788E-10	325.068037	0.1000054	7.53176E-05	325.068037
-8.4005	-2.862E-10	325.092563	0.1000056	7.4788E-05	325.092563
-8.60049	-2.925E-10	325.117166	0.1000052	7.42552E-05	325.117166
-8.80049	-2.879E-10	325.141747	0.1000055	7.37191E-05	325.141747
-9.00048	-3.044E-10	325.166273	0.1000061	7.31831E-05	325.166273
-9.20048	-3.095E-10	325.190801	0.1000059	7.26443E-05	325.190801
-9.40047	-2.77E-10	325.215405	0.1000052	7.21027E-05	325.215405
-9.6005	-3.124E-10	325.23995	0.1000054	7.15604E-05	325.23995
-9.8005	-3.233E-10	325.264484	0.1000059	7.10187E-05	325.264484
-10.0005	-3.084E-10	325.289024	0.100006	7.0474E-05	325.289024
-10.20047	-3.031E-10	325.313537	0.100006	6.99277E-05	325.313537
-10.4005	-3.159E-10	325.338063	0.1000057	6.93789E-05	325.338063
-10.60051	-2.513E-10	325.395	0.1000061	6.88345E-05	325.395
-10.80049	-3.088E-10	325.419525	0.1000063	6.82791E-05	325.419525
-11.00049	-2.838E-10	325.444079	0.1000062	6.77218E-05	325.444079
-11.20048	-2.53E-10	325.468615	0.1000066	6.71635E-05	325.468615
-11.4005	-2.895E-10	325.493201	0.1000073	6.66029E-05	325.493201
-11.60049	-3.205E-10	325.517711	0.100007	6.60391E-05	325.517711
-11.80048	-3.231E-10	325.542228	0.1000066	6.54731E-05	325.542228
-12.00047	-3.23E-10	325.566741	0.1000081	6.49068E-05	325.566741
