#scan	iMeasureCycle=1	iMux=0	time=0.038	N=222	LocalTime=21/06/2023 22:56:48
#VGate(V)	IGate(A)	time(s)	VDrain(V)	IDrain(A)	time(s)
-12.00047	-3.18E-09	0.06381	0.1000066	4.71624E-05	0.06381
-11.80049	-3.0019E-09	0.08877	0.1000054	4.77866E-05	0.08877
-11.60048	-1.1135E-09	0.113299	0.1000059	4.84096E-05	0.113299
-11.4005	-5.041E-10	0.137821	0.1000049	4.90309E-05	0.137821
-11.2005	-3.288E-10	0.162356	0.1000044	4.96497E-05	0.162356
-11.00047	-2.149E-10	0.18686	0.1000049	5.02665E-05	0.18686
-10.80048	-1.986E-10	0.211398	0.1000047	5.0884E-05	0.211398
-10.60051	-9.46E-11	0.235923	0.1000051	5.14989E-05	0.235923
-10.40048	-1.49E-11	0.260461	0.100004	5.21105E-05	0.260461
-10.20049	-4.65E-11	0.284983	0.1000049	5.27219E-05	0.284983
-10.00049	-6.7E-11	0.309506	0.1000059	5.33326E-05	0.309506
-9.80048	4.4E-12	0.333973	0.1000046	5.39418E-05	0.333973
-9.60049	3.11E-11	0.358506	0.1000046	5.45492E-05	0.358506
-9.40046	4.65E-11	0.383023	0.1000044	5.51543E-05	0.383023
-9.20048	2.29E-11	0.40765	0.1000054	5.57596E-05	0.40765
-9.0005	3.25E-11	0.432159	0.1000055	5.63578E-05	0.432159
-8.80049	8.98E-11	0.456712	0.1000049	5.69572E-05	0.456712
-8.6005	1.147E-10	0.48123	0.1000042	5.75507E-05	0.48123
-8.40047	7.2E-11	0.505768	0.100004	5.81443E-05	0.505768
-8.20048	5.66E-11	0.5303	0.1000055	5.87367E-05	0.5303
-8.0005	1.072E-10	0.55483	0.1000049	5.93274E-05	0.55483
-7.80046	1.434E-10	0.579334	0.1000047	5.99155E-05	0.579334
-7.60049	5.18E-11	0.62743	0.1000049	6.04992E-05	0.62743
-7.4005	6.78E-11	0.651997	0.1000052	6.10864E-05	0.651997
-7.20049	1.458E-10	0.676516	0.1000058	6.16712E-05	0.676516
-7.00047	1.754E-10	0.701052	0.1000056	6.22547E-05	0.701052
-6.80049	1.397E-10	0.725626	0.1000054	6.28354E-05	0.725626
-6.60049	1.044E-10	0.750235	0.1000046	6.34152E-05	0.750235
-6.4005	1.732E-10	0.77475	0.1000053	6.3994E-05	0.77475
-6.20049	1.837E-10	0.799274	0.1000059	6.45716E-05	0.799274
-6.0005	1.69E-10	0.823781	0.1000052	6.5145E-05	0.823781
-5.80048	1.793E-10	0.848318	0.1000056	6.57179E-05	0.848318
-5.60049	1.608E-10	0.872828	0.1000051	6.62909E-05	0.872828
-5.40051	2.853E-10	0.897414	0.1000061	6.68608E-05	0.897414
-5.2005	2.78E-10	0.921945	0.1000053	6.74291E-05	0.921945
-5.00049	2.061E-10	0.946458	0.1000058	6.79964E-05	0.946458
-4.80046	1.609E-10	0.970993	0.1000055	6.85621E-05	0.970993
-4.60047	2.207E-10	0.995509	0.1000059	6.91276E-05	0.995509
-4.40049	2.692E-10	1.020043	0.1000049	6.96894E-05	1.020043
-4.2005	2.35E-10	1.044575	0.1000047	7.02516E-05	1.044575
-4.00048	2.129E-10	1.069105	0.1000052	7.08127E-05	1.069105
-3.80049	1.64E-10	1.129034	0.1000053	7.13662E-05	1.129034
-3.60049	1.901E-10	1.153575	0.1000061	7.19269E-05	1.153575
-3.4005	2.444E-10	1.178094	0.1000061	7.24848E-05	1.178094
-3.20049	2.813E-10	1.202614	0.1000056	7.30432E-05	1.202614
-3.00049	5.72E-11	1.227177	0.1000051	7.36002E-05	1.227177
-2.8005	1.915E-10	1.251684	0.1000049	7.41554E-05	1.251684
-2.60048	2.458E-10	1.2762	0.100005	7.47106E-05	1.2762
-2.4005	3.025E-10	1.300716	0.1000054	7.52658E-05	1.300716
-2.20046	2.605E-10	1.325233	0.1000048	7.58188E-05	1.325233
-2.00047	2.324E-10	1.349744	0.1000057	7.63729E-05	1.349744
-1.8005	2.669E-10	1.374261	0.1000055	7.69263E-05	1.374261
-1.60049	2.951E-10	1.398831	0.1000053	7.74802E-05	1.398831
-1.40049	3.065E-10	1.423447	0.1000053	7.80334E-05	1.423447
-1.20049	2.645E-10	1.448062	0.1000056	7.85917E-05	1.448062
-1.00049	2.465E-10	1.472588	0.1000055	7.91539E-05	1.472588
-0.80049	3.008E-10	1.497108	0.1000041	7.97266E-05	1.497108
-0.60047	3.46E-10	1.521641	0.1000047	8.03121E-05	1.521641
-0.40049	2.962E-10	1.546195	0.1000046	8.09105E-05	1.546195
-0.20051	2.75E-10	1.570756	0.1000047	8.15221E-05	1.570756
-0.00047	2.163E-10	1.630483	0.1000047	8.21343E-05	1.630483
0.19951	2.874E-10	1.65503	0.1000065	8.27665E-05	1.65503
0.39952	3.18E-10	1.679549	0.1000048	8.34003E-05	1.679549
0.59951	3.348E-10	1.704084	0.1000041	8.4039E-05	1.704084
0.7995	2.959E-10	1.72865	0.1000051	8.46812E-05	1.72865
0.9995	2.749E-10	1.753248	0.1000045	8.53239E-05	1.753248
1.19951	3.464E-10	1.777749	0.1000047	8.59719E-05	1.777749
1.3995	3.665E-10	1.802263	0.1000047	8.66222E-05	1.802263
1.5995	3.309E-10	1.826759	0.1000047	8.72751E-05	1.826759
1.79952	3.11E-10	1.851264	0.1000044	8.793E-05	1.851264
1.9995	3.371E-10	1.875798	0.1000052	8.85885E-05	1.875798
2.19949	3.535E-10	1.900359	0.1000046	8.92469E-05	1.900359
2.39951	3.794E-10	1.924866	0.1000036	8.99068E-05	1.924866
2.59951	3.338E-10	1.949385	0.1000044	9.05705E-05	1.949385
2.7995	3.096E-10	1.973912	0.1000038	9.12326E-05	1.973912
2.99951	3.789E-10	1.998428	0.1000044	9.18963E-05	1.998428
3.1995	4.095E-10	2.022943	0.100004	9.25596E-05	2.022943
3.3995	3.655E-10	2.047472	0.1000038	9.3223E-05	2.047472
3.59951	3.189E-10	2.072011	0.1000039	9.38859E-05	2.072011
3.79949	2.707E-10	2.132243	0.1000045	9.45387E-05	2.132243
3.99947	3.536E-10	2.15677	0.1000044	9.52004E-05	2.15677
4.19951	3.829E-10	2.181318	0.1000036	9.58573E-05	2.181318
4.3995	3.908E-10	2.205826	0.1000029	9.65118E-05	2.205826
4.59951	3.575E-10	2.23041	0.1000041	9.71644E-05	2.23041
4.79951	3.543E-10	2.25489	0.1000044	9.7813E-05	2.25489
4.99949	4E-10	2.279433	0.100004	9.84592E-05	2.279433
5.19949	4.927E-10	2.303933	0.1000037	9.9101E-05	2.303933
5.3995	4.314E-10	2.328458	0.1000042	9.97396E-05	2.328458
5.5995	3.54E-10	2.352971	0.1000042	0.0001003741	2.352971
5.79948	4.31E-10	2.377492	0.1000037	0.0001010044	2.377492
5.9995	4.547E-10	2.402051	0.1000035	0.0001016302	2.402051
6.1995	4.105E-10	2.426679	0.1000041	0.000102252	2.426679
6.39952	4.099E-10	2.4512	0.100004	0.000102872	2.4512
6.5995	4.11E-10	2.47576	0.1000037	0.000103487	2.47576
6.7995	4.388E-10	2.500271	0.1000039	0.0001040961	2.500271
6.99951	4.661E-10	2.524771	0.1000038	0.0001047028	2.524771
7.19949	3.433E-10	2.554362	0.1	0.00010539	2.554362
7.39952	4.402E-10	2.57889	0.1	0.000105985	2.57889
7.59949	1.468E-10	2.6365	0.1000002	0.000106575	2.6365
7.79952	4.027E-10	2.661062	0.1000001	0.000107169	2.661062
7.9995	4.352E-10	2.685581	0.0999999	0.000107756	2.685581
8.19948	4.049E-10	2.710107	0.1	0.000108339	2.710107
8.39952	3.728E-10	2.734663	0.1000001	0.000108919	2.734663
8.59952	4.406E-10	2.759319	0.1000001	0.000109493	2.759319
8.7995	4.91E-10	2.783855	0.0999999	0.000110067	2.783855
8.99951	4.321E-10	2.808368	0.0999998	0.000110634	2.808368
9.1995	3.951E-10	2.832882	0.1000002	0.000111199	2.832882
9.39951	4.617E-10	2.857394	0.1000003	0.000111764	2.857394
9.59951	4.659E-10	2.881945	0.1000002	0.000112327	2.881945
9.79952	4.644E-10	2.906501	0.0999998	0.000112886	2.906501
9.99949	4.424E-10	2.931039	0.1000001	0.000113439	2.931039
9.99949	3.471E-10	2.954365	0.0999999	0.000113439	2.954365
9.79951	3.144E-10	2.978988	0.0999999	0.000112881	2.978988
9.59952	3.167E-10	3.003497	0.1000001	0.000112323	3.003497
9.39951	2.42E-10	3.028264	0.1	0.000111765	3.028264
9.1995	1.777E-10	3.052779	0.1	0.000111199	3.052779
8.99951	1.735E-10	3.077381	0.1000002	0.000110631	3.077381
8.79951	1.608E-10	3.135308	0.1	0.000110054	3.135308
8.5995	1.58E-10	3.159824	0.1	0.000109471	3.159824
8.39952	1.865E-10	3.184363	0.1000001	0.000108889	3.184363
8.1995	1.2E-10	3.208872	0.1	0.000108298	3.208872
7.99952	6.03E-11	3.233441	0.1	0.000107704	3.233441
7.79953	8.65E-11	3.257946	0.1000002	0.000107109	3.257946
7.59951	1.041E-10	3.282579	0.1000001	0.000106508	3.282579
7.3995	8.56E-11	3.307092	0.0999997	0.000105905	3.307092
7.1995	4.04E-11	3.331638	0.0999999	0.000105298	3.331638
6.9995	1.58E-11	3.356146	0.0999998	0.000104687	3.356146
6.79951	6.35E-11	3.380743	0.1	0.000104073	3.380743
6.59951	8.05E-11	3.405315	0.0999999	0.000103456	3.405315
6.39951	8.5E-12	3.429913	0.1000001	0.000102834	3.429913
6.19951	-2.8E-11	3.454456	0.0999999	0.00010221	3.454456
5.99951	9.9E-12	3.478959	0.1000001	0.000101581	3.478959
5.79952	2.82E-11	3.503488	0.1	0.000100943	3.503488
5.59953	-3.3E-12	3.528008	0.1	0.000100307	3.528008
5.3995	-3.05E-11	3.552558	0.1	9.9665E-05	3.552558
5.19951	-4.54E-11	3.577076	0.1	9.9021E-05	3.577076
4.99951	1.04E-11	3.637008	0.1	9.8376E-05	3.637008
4.79952	5E-12	3.66152	0.0999999	9.7723E-05	3.66152
4.59953	3.8E-12	3.686062	0.0999999	9.7068E-05	3.686062
4.39952	-5.83E-11	3.710574	0.1	9.641E-05	3.710574
4.19952	6.23E-11	3.735144	0.1000001	9.5747E-05	3.735144
3.99951	-3.33E-11	3.759742	0.1000001	9.5084E-05	3.759742
3.79951	-7.8E-12	3.78429	0.1	9.442E-05	3.78429
3.59951	-7.12E-11	3.808821	0.0999998	9.3751E-05	3.808821
3.39951	-8.6E-11	3.833341	0.0999999	9.3083E-05	3.833341
3.19951	-8.38E-11	3.857854	0.0999999	9.2418E-05	3.857854
2.9995	-7.61E-11	3.88236	0.0999998	9.1749E-05	3.88236
2.79953	-4.97E-11	3.906942	0.1	9.1081E-05	3.906942
2.59953	-1.124E-10	3.931448	0.1000001	9.0415E-05	3.931448
2.39951	-1.623E-10	3.955981	0.0999999	8.9749E-05	3.955981
2.19951	-9.47E-11	3.980497	0.0999998	8.9083E-05	3.980497
1.99951	-9E-11	4.008368	0.1000048	8.83336E-05	4.008368
1.79952	-2.546E-10	4.032907	0.1000045	8.76726E-05	4.032907
1.59949	-1.836E-10	4.057427	0.1000044	8.70149E-05	4.057427
1.39951	-1.391E-10	4.081893	0.1000048	8.63608E-05	4.081893
1.19952	-6.64E-11	4.141518	0.1000047	8.57123E-05	4.141518
0.99951	-7.66E-11	4.166046	0.1000044	8.5061E-05	4.166046
0.79951	-1.588E-10	4.19058	0.1000048	8.44151E-05	4.19058
0.59951	-1.838E-10	4.215093	0.1000049	8.37708E-05	4.215093
0.39952	-1.387E-10	4.239659	0.1000043	8.31303E-05	4.239659
0.19952	-1.389E-10	4.264177	0.1000048	8.24954E-05	4.264177
-0.00048	-1.624E-10	4.288684	0.1000048	8.18685E-05	4.288684
-0.20049	-1.765E-10	4.313197	0.1000045	8.12502E-05	4.313197
-0.40048	-2.147E-10	4.337717	0.1000045	8.06441E-05	4.337717
-0.60048	-1.706E-10	4.362229	0.1000042	8.00541E-05	4.362229
-0.80049	-1.266E-10	4.386756	0.1000049	7.94777E-05	4.386756
-1.00048	-2.097E-10	4.41131	0.1000047	7.89117E-05	4.41131
-1.20049	-2.433E-10	4.435927	0.1000056	7.83539E-05	4.435927
-1.40048	-1.933E-10	4.460453	0.1000051	7.7801E-05	4.460453
-1.60049	-1.62E-10	4.484966	0.1000056	7.72479E-05	4.484966
-1.80047	-2.052E-10	4.509493	0.1000043	7.66938E-05	4.509493
-2.00047	-2.37E-10	4.53407	0.100005	7.61415E-05	4.53407
-2.20048	-2.157E-10	4.558599	0.1000045	7.55883E-05	4.558599
-2.40047	-2.093E-10	4.583125	0.100005	7.50348E-05	4.583125
-2.60046	-1.483E-10	4.640397	0.1000055	7.44832E-05	4.640397
-2.8005	-1.754E-10	4.664937	0.1000054	7.39281E-05	4.664937
-3.00045	-2.129E-10	4.689468	0.1000056	7.33723E-05	4.689468
-3.20048	-2.41E-10	4.714013	0.1000052	7.28153E-05	4.714013
-3.40047	-2.512E-10	4.738597	0.100005	7.22571E-05	4.738597
-3.60049	-2.167E-10	4.763206	0.1000047	7.16991E-05	4.763206
-3.80047	-2.107E-10	4.787725	0.1000053	7.11404E-05	4.787725
-4.00049	-2.516E-10	4.812239	0.1000045	7.05792E-05	4.812239
-4.20049	-2.852E-10	4.836758	0.1000048	7.00174E-05	4.836758
-4.40048	-2.563E-10	4.861272	0.1000044	6.94547E-05	4.861272
-4.60047	-2.083E-10	4.885875	0.1000048	6.88904E-05	4.885875
-4.80047	-2.462E-10	4.910433	0.1000048	6.83236E-05	4.910433
-5.00049	-2.902E-10	4.93497	0.1000045	6.7757E-05	4.93497
-5.20051	-2.826E-10	4.959482	0.1000053	6.71893E-05	4.959482
-5.40048	-2.503E-10	4.984026	0.1000048	6.66188E-05	4.984026
-5.60047	-2.52E-10	5.008533	0.1000045	6.60473E-05	5.008533
-5.80047	-2.937E-10	5.033073	0.1000044	6.54736E-05	5.033073
-6.00049	-3.271E-10	5.057605	0.1000049	6.4899E-05	5.057605
-6.20049	-2.788E-10	5.082119	0.1000055	6.4322E-05	5.082119
-6.40048	-9.7E-11	5.142065	0.1000053	6.37469E-05	5.142065
-6.60049	-1.947E-10	5.166596	0.1000055	6.31666E-05	5.166596
-6.80047	-2.699E-10	5.191122	0.1000038	6.25849E-05	5.191122
-7.00047	-3.136E-10	5.215652	0.1000053	6.20016E-05	5.215652
-7.20049	-2.913E-10	5.240207	0.1000046	6.14163E-05	5.240207
-7.40047	-2.663E-10	5.264726	0.1000065	6.08318E-05	5.264726
-7.60046	-2.697E-10	5.289233	0.1000067	6.02439E-05	5.289233
-7.80048	-3.194E-10	5.313761	0.1000052	5.96535E-05	5.313761
-8.00047	-3.6E-10	5.338266	0.1000052	5.90621E-05	5.338266
-8.20047	-2.868E-10	5.362779	0.1000057	5.84692E-05	5.362779
-8.40047	-2.685E-10	5.387287	0.1000056	5.78747E-05	5.387287
-8.60047	-3.341E-10	5.41185	0.1000054	5.72777E-05	5.41185
-8.80044	-3.614E-10	5.436467	0.1000051	5.66812E-05	5.436467
-9.0005	-3.951E-10	5.460971	0.1000044	5.60804E-05	5.460971
-9.20048	-3.289E-10	5.485497	0.1000046	5.548E-05	5.485497
-9.40047	-3.273E-10	5.510016	0.1000046	5.48772E-05	5.510016
-9.6005	-3.611E-10	5.534552	0.100004	5.42737E-05	5.534552
-9.80046	-3.767E-10	5.559084	0.1000043	5.36713E-05	5.559084
-10.00047	-3.372E-10	5.583621	0.1000038	5.3065E-05	5.583621
-10.20048	-2.716E-10	5.643511	0.1000042	5.24664E-05	5.643511
-10.40045	-2.874E-10	5.668038	0.1000037	5.18579E-05	5.668038
-10.60048	-3.501E-10	5.69255	0.1000034	5.12477E-05	5.69255
-10.80046	-3.732E-10	5.717074	0.1000053	5.0637E-05	5.717074
-11.00046	-3.444E-10	5.741636	0.1000046	5.00235E-05	5.741636
-11.2005	-3.348E-10	5.766252	0.1000051	4.94103E-05	5.766252
-11.40046	-3.492E-10	5.790762	0.1000051	4.87944E-05	5.790762
-11.60049	-3.678E-10	5.815271	0.1000037	4.81756E-05	5.815271
-11.80045	-3.912E-10	5.83978	0.1000048	4.75576E-05	5.83978
-12.00046	-3.655E-10	5.864293	0.1000053	4.69394E-05	5.864293
#scan	iMeasureCycle=2	iMux=0	time=279.774	N=222	LocalTime=21/06/2023 23:01:28
#VGate(V)	IGate(A)	time(s)	VDrain(V)	IDrain(A)	time(s)
-12.00046	-1.811E-10	279.781508	0.1000046	4.70616E-05	279.781508
-11.80051	-2.08E-11	279.806405	0.100005	4.76856E-05	279.806405
-11.60048	-4.24E-11	279.832067	0.1000052	4.83068E-05	279.832067
-11.40048	-3.6E-12	279.85659	0.1000059	4.89262E-05	279.85659
-11.20048	6.31E-11	279.88109	0.1000036	4.95443E-05	279.88109
-11.00049	7.92E-11	279.905605	0.1000053	5.01617E-05	279.905605
-10.80049	3.37E-11	279.930165	0.1000059	5.07777E-05	279.930165
-10.60047	1.55E-11	279.954715	0.100004	5.13907E-05	279.954715
-10.40048	1.053E-10	279.979242	0.1000045	5.2004E-05	279.979242
-10.20048	1.376E-10	280.003762	0.1000045	5.26147E-05	280.003762
-10.00046	8.68E-11	280.028304	0.1000056	5.3225E-05	280.028304
-9.80046	5.53E-11	280.052854	0.1000034	5.38328E-05	280.052854
-9.60049	1.202E-10	280.077388	0.1000039	5.44397E-05	280.077388
-9.40048	1.29E-10	280.101969	0.1000044	5.50462E-05	280.101969
-9.20047	1.296E-10	280.126515	0.1000051	5.56495E-05	280.126515
-9.00049	1.31E-10	280.151039	0.1000051	5.62502E-05	280.151039
-8.80048	9.76E-11	280.17556	0.1000048	5.68483E-05	280.17556
-8.6005	1.435E-10	280.200072	0.1000049	5.74433E-05	280.200072
-8.40048	2.088E-10	280.224597	0.1000047	5.80372E-05	280.224597
-8.2005	1.416E-10	280.249106	0.1000043	5.86289E-05	280.249106
-8.0005	1.014E-10	280.273741	0.1000048	5.92197E-05	280.273741
-7.80049	1.673E-10	280.298269	0.1000049	5.98086E-05	280.298269
-7.6005	1.612E-10	280.345586	0.1000051	6.03946E-05	280.345586
-7.40048	1.457E-10	280.37011	0.1000054	6.09813E-05	280.37011
-7.20049	1.185E-10	280.394636	0.1000053	6.15667E-05	280.394636
-7.00048	1.821E-10	280.419259	0.1000052	6.21515E-05	280.419259
-6.80049	2.242E-10	280.443859	0.1000048	6.27336E-05	280.443859
-6.60048	1.931E-10	280.468374	0.1000052	6.33142E-05	280.468374
-6.40047	1.696E-10	280.492911	0.1000054	6.38934E-05	280.492911
-6.20049	1.784E-10	280.51742	0.1000048	6.44705E-05	280.51742
-6.0005	2.224E-10	280.541954	0.1000051	6.50454E-05	280.541954
-5.80049	2.398E-10	280.566481	0.1000036	6.56204E-05	280.566481
-5.60048	1.923E-10	280.590998	0.1000041	6.61923E-05	280.590998
-5.40049	1.622E-10	280.615591	0.1000049	6.67642E-05	280.615591
-5.2005	2.456E-10	280.640197	0.1000048	6.73338E-05	280.640197
-5.00049	2.696E-10	280.664717	0.1000048	6.79016E-05	280.664717
-4.80048	2.096E-10	280.689228	0.1000055	6.84692E-05	280.689228
-4.60047	1.979E-10	280.713749	0.1000054	6.90341E-05	280.713749
-4.40051	2.522E-10	280.738292	0.1000047	6.95986E-05	280.738292
-4.20048	2.505E-10	280.762815	0.1000052	7.01617E-05	280.762815
-4.00052	2.512E-10	280.787324	0.1000045	7.07207E-05	280.787324
-3.80047	2.235E-10	280.847007	0.100004	7.1278E-05	280.847007
-3.60049	3.855E-10	280.871534	0.1000059	7.18387E-05	280.871534
-3.40048	1.853E-10	280.896059	0.1000055	7.23976E-05	280.896059
-3.20048	2.691E-10	280.92064	0.1000052	7.29551E-05	280.92064
-3.00049	3.142E-10	280.945247	0.1000061	7.35119E-05	280.945247
-2.8005	2.514E-10	280.969774	0.100006	7.40683E-05	280.969774
-2.60047	2.164E-10	280.994296	0.100005	7.46223E-05	280.994296
-2.4005	2.793E-10	281.018797	0.1000059	7.51774E-05	281.018797
-2.20048	2.897E-10	281.043323	0.1000048	7.57313E-05	281.043323
-2.00045	2.911E-10	281.067843	0.1000058	7.62857E-05	281.067843
-1.80051	2.768E-10	281.092371	0.1000047	7.68388E-05	281.092371
-1.60048	2.353E-10	281.116878	0.1000049	7.73913E-05	281.116878
-1.40049	2.983E-10	281.141499	0.1000053	7.79471E-05	281.141499
-1.2005	3.502E-10	281.166019	0.1000054	7.85037E-05	281.166019
-1.00046	1.31E-10	281.190544	0.1000051	7.9066E-05	281.190544
-0.80049	2.316E-10	281.215067	0.1000048	7.96384E-05	281.215067
-0.60049	2.944E-10	281.239591	0.1000049	8.02232E-05	281.239591
-0.40051	3.346E-10	281.264115	0.1000049	8.08218E-05	281.264115
-0.20049	3.02E-10	281.288744	0.1000047	8.14321E-05	281.288744
-0.0005	2.471E-10	281.348764	0.1000044	8.20478E-05	281.348764
0.1995	2.779E-10	281.373355	0.1000051	8.26799E-05	281.373355
0.39951	2.652E-10	281.397879	0.1000048	8.3316E-05	281.397879
0.59953	3.1E-10	281.422491	0.100004	8.39555E-05	281.422491
0.79951	3.597E-10	281.447062	0.1000043	8.4598E-05	281.447062
0.99953	3.13E-10	281.471561	0.1000053	8.52449E-05	281.471561
1.19951	2.682E-10	281.496086	0.1000045	8.58927E-05	281.496086
1.39951	3.25E-10	281.520595	0.1000043	8.65438E-05	281.520595
1.5995	3.912E-10	281.545117	0.1000047	8.71975E-05	281.545117
1.7995	3.36E-10	281.569638	0.1000049	8.7853E-05	281.569638
1.99952	3.066E-10	281.594146	0.1000044	8.85129E-05	281.594146
2.1995	3.321E-10	281.61875	0.1000041	8.91714E-05	281.61875
2.3995	3.712E-10	281.64326	0.1000046	8.98354E-05	281.64326
2.59951	3.894E-10	281.667776	0.1000041	9.04989E-05	281.667776
2.7995	3.282E-10	281.69228	0.1000043	9.1163E-05	281.69228
2.99948	3.111E-10	281.716795	0.1000038	9.1828E-05	281.716795
3.19951	3.703E-10	281.741312	0.1000041	9.24933E-05	281.741312
3.3995	4.096E-10	281.765833	0.1000042	9.31589E-05	281.765833
3.5995	3.625E-10	281.790344	0.1000046	9.3823E-05	281.790344
3.7995	3.006E-10	281.850158	0.1000033	9.44767E-05	281.850158
3.99949	3.284E-10	281.874678	0.1000041	9.5141E-05	281.874678
4.1995	3.411E-10	281.899211	0.1000041	9.58005E-05	281.899211
4.39949	3.81E-10	281.923772	0.1000043	9.64582E-05	281.923772
4.5995	4.047E-10	281.948383	0.1000042	9.71112E-05	281.948383
4.79947	3.528E-10	281.9729	0.100004	9.77617E-05	281.9729
4.99952	3.446E-10	281.997427	0.1000038	9.84084E-05	281.997427
5.19953	3.949E-10	282.021941	0.1000029	9.90507E-05	282.021941
5.39952	4.205E-10	282.046461	0.100004	9.96908E-05	282.046461
5.5995	3.958E-10	282.070988	0.1000041	0.0001003265	282.070988
5.7995	3.663E-10	282.095574	0.1000035	0.0001009572	282.095574
5.9995	3.826E-10	282.120104	0.1000044	0.0001015845	282.120104
6.19949	4.109E-10	282.144645	0.1000034	0.0001022097	282.144645
6.3995	4.372E-10	282.169158	0.100004	0.0001028294	282.169158
6.5995	3.842E-10	282.193688	0.1000031	0.0001034431	282.193688
6.79951	3.471E-10	282.218201	0.1000041	0.0001040561	282.218201
6.99948	4.246E-10	282.242724	0.1000037	0.0001046631	282.242724
7.1995	5.029E-10	282.272365	0.0999999	0.000105352	282.272365
7.39952	3.852E-10	282.296879	0.1	0.000105952	282.296879
7.5995	3.358E-10	282.354453	0.1	0.000106542	282.354453
7.79952	3.57E-10	282.379001	0.1000001	0.000107134	282.379001
7.99947	4.348E-10	282.403514	0.1	0.000107725	282.403514
8.1995	4.608E-10	282.428104	0.1000001	0.000108308	282.428104
8.3995	3.969E-10	282.452669	0.1000001	0.000108887	282.452669
8.59951	3.79E-10	282.477186	0.0999999	0.000109462	282.477186
8.7995	4.367E-10	282.501699	0.0999999	0.000110038	282.501699
8.99947	4.593E-10	282.526206	0.1	0.000110605	282.526206
9.1995	4.401E-10	282.550744	0.1	0.000111169	282.550744
9.39952	4.175E-10	282.575278	0.1000001	0.000111738	282.575278
9.5995	1.385E-10	282.599787	0.1000001	0.000112298	282.599787
9.7995	4.34E-10	282.624377	0.0999999	0.000112857	282.624377
9.99949	4.907E-10	282.64891	0.0999999	0.000113414	282.64891
9.99948	3.725E-10	282.672263	0.0999998	0.000113413	282.672263
9.79953	2.42E-10	282.696779	0.1000002	0.000112857	282.696779
9.59949	2.527E-10	282.72129	0.0999999	0.0001123	282.72129
9.3995	2.372E-10	282.745818	0.1	0.000111739	282.745818
9.19954	1.954E-10	282.770396	0.1000001	0.000111172	282.770396
8.99951	1.715E-10	282.794906	0.1	0.000110603	282.794906
8.79951	2.534E-10	282.849153	0.1	0.000110026	282.849153
8.59951	1.43E-10	282.873672	0.0999999	0.000109446	282.873672
8.3995	6.97E-11	282.898206	0.0999999	0.000108862	282.898206
8.19951	1.178E-10	282.922951	0.1000002	0.000108271	282.922951
7.9995	1.673E-10	282.947629	0.1000002	0.000107678	282.947629
7.79951	7.69E-11	282.972159	0.0999999	0.000107082	282.972159
7.59951	4.82E-11	282.996684	0.0999999	0.000106478	282.996684
7.39952	5.85E-11	283.021197	0.1	0.000105875	283.021197
7.19948	6.69E-11	283.045703	0.1	0.000105269	283.045703
6.9995	7.27E-11	283.070243	0.0999998	0.000104659	283.070243
6.7995	1.55E-11	283.094793	0.0999998	0.000104046	283.094793
6.59951	-2.06E-11	283.119337	0.1000001	0.000103426	283.119337
6.3995	3.11E-11	283.143856	0.1000002	0.000102802	283.143856
6.19953	4.96E-11	283.168391	0.1000001	0.000102176	283.168391
5.9995	9.8E-12	283.192904	0.0999998	0.000101546	283.192904
5.79953	-3.86E-11	283.217423	0.1	0.000100912	283.217423
5.59951	-2.77E-11	283.241948	0.1000001	0.000100276	283.241948
5.39951	-3.5E-12	283.266483	0.1	9.9634E-05	283.266483
5.1995	2.7E-12	283.291086	0.1000001	9.8989E-05	283.291086
4.99952	2.87E-11	283.353042	0.1	9.8341E-05	283.353042
4.79952	-6.11E-11	283.377639	0.1000001	9.7689E-05	283.377639
4.59951	-2.75E-11	283.402159	0.0999997	9.7032E-05	283.402159
4.3995	-1.82E-11	283.426701	0.1000001	9.6373E-05	283.426701
4.19952	-3.97E-11	283.451281	0.0999998	9.5712E-05	283.451281
3.99951	-7.84E-11	283.475821	0.0999999	9.5049E-05	283.475821
3.79951	-9.93E-11	283.50035	0.0999999	9.4384E-05	283.50035
3.5995	-4.98E-11	283.524868	0.0999998	9.3716E-05	283.524868
3.3995	-3.88E-11	283.549462	0.1	9.3046E-05	283.549462
3.1995	-1.022E-10	283.574003	0.1	9.2377E-05	283.574003
2.99952	-1.249E-10	283.598512	0.0999999	9.1709E-05	283.598512
2.79952	-9.46E-11	283.623132	0.0999996	9.1042E-05	283.623132
2.59952	-9.1E-11	283.647652	0.1	9.0376E-05	283.647652
2.39951	-9.19E-11	283.672178	0.0999998	8.9708E-05	283.672178
2.19953	-3.9E-11	283.696688	0.1	8.9045E-05	283.696688
1.99952	-1.375E-10	283.721211	0.1	8.838E-05	283.721211
1.79952	-9.43E-11	283.745723	0.1	8.7718E-05	283.745723
1.59954	-1.148E-10	283.773647	0.1000044	8.69733E-05	283.773647
1.39951	-1.486E-10	283.798374	0.1000056	8.632E-05	283.798374
1.19952	-1.107E-10	283.859614	0.1000045	8.56704E-05	283.859614
0.99948	-1.103E-10	283.884134	0.1000048	8.50212E-05	283.884134
0.79952	-8.47E-11	283.908644	0.1000045	8.43733E-05	283.908644
0.59953	-1.3E-10	283.933229	0.1000048	8.37292E-05	283.933229
0.39953	-1.575E-10	283.957823	0.1000052	8.30882E-05	283.957823
0.19951	-1.703E-10	283.98237	0.1000052	8.24534E-05	283.98237
-0.00048	-2.445E-10	284.006858	0.1000047	8.18259E-05	284.006858
-0.20051	-1.447E-10	284.031385	0.1000039	8.12055E-05	284.031385
-0.40049	-1.971E-10	284.055916	0.1000042	8.06016E-05	284.055916
-0.60047	-2.315E-10	284.080459	0.100005	8.00118E-05	284.080459
-0.80049	-1.686E-10	284.105037	0.1000042	7.94351E-05	284.105037
-1.00051	-1.407E-10	284.129567	0.1000044	7.88705E-05	284.129567
-1.20049	-2.108E-10	284.154097	0.1000048	7.83134E-05	284.154097
-1.40048	-2.202E-10	284.178726	0.1000051	7.7759E-05	284.178726
-1.60048	-1.984E-10	284.203248	0.1000036	7.72062E-05	284.203248
-1.80049	-1.967E-10	284.227766	0.1000042	7.66541E-05	284.227766
-2.00046	-1.833E-10	284.252274	0.1000044	7.61017E-05	284.252274
-2.20047	-2.217E-10	284.276849	0.1000047	7.55487E-05	284.276849
-2.40049	-2.744E-10	284.301366	0.1000047	7.49944E-05	284.301366
-2.60046	-1.702E-10	284.35826	0.1000051	7.44441E-05	284.35826
-2.80048	-2.252E-10	284.382794	0.100005	7.38904E-05	284.382794
-3.00047	-2.086E-10	284.407342	0.1000049	7.33347E-05	284.407342
-3.20049	-1.771E-10	284.43194	0.1000047	7.27763E-05	284.43194
-3.40049	-2.334E-10	284.4565	0.1000054	7.22206E-05	284.4565
-3.60047	-2.808E-10	284.481037	0.100005	7.16614E-05	284.481037
-3.80047	-2.244E-10	284.505547	0.1000048	7.11032E-05	284.505547
-4.00048	-1.799E-10	284.530083	0.1000051	7.0543E-05	284.530083
-4.20046	-2.518E-10	284.554857	0.1000055	6.99813E-05	284.554857
-4.40049	-2.905E-10	284.579383	0.100005	6.94196E-05	284.579383
-4.60047	-2.396E-10	284.603925	0.1000058	6.88547E-05	284.603925
-4.80045	-2.407E-10	284.628514	0.1000052	6.82892E-05	284.628514
-5.00047	-2.431E-10	284.653053	0.100004	6.77217E-05	284.653053
-5.20047	-2.728E-10	284.677569	0.1000053	6.7154E-05	284.677569
-5.40048	-3.068E-10	284.702093	0.100005	6.65839E-05	284.702093
-5.60046	-2.571E-10	284.726611	0.1000044	6.60128E-05	284.726611
-5.80047	-2.304E-10	284.751149	0.1000052	6.54398E-05	284.751149
-6.00046	-2.8E-10	284.775654	0.1000055	6.48644E-05	284.775654
-6.20048	-3.191E-10	284.800193	0.1000052	6.42887E-05	284.800193
-6.40048	-2.636E-10	284.85992	0.1000054	6.37141E-05	284.85992
-6.60049	-2.519E-10	284.884473	0.1000043	6.31332E-05	284.884473
-6.80048	-2.625E-10	284.90898	0.1000048	6.25523E-05	284.90898
-7.00049	-2.665E-10	284.933565	0.1000046	6.19687E-05	284.933565
-7.20047	-2.975E-10	284.958168	0.1000057	6.13839E-05	284.958168
-7.40047	-3.201E-10	284.982687	0.1000058	6.07984E-05	284.982687
-7.60047	-2.838E-10	285.007199	0.1000045	6.02102E-05	285.007199
-7.80046	-2.64E-10	285.031707	0.1000046	5.96211E-05	285.031707
-8.00048	-3.026E-10	285.056499	0.1000045	5.903E-05	285.056499
-8.20049	-3.509E-10	285.08102	0.1000042	5.84369E-05	285.08102
-8.40047	-2.442E-10	285.105568	0.1000041	5.78424E-05	285.105568
-8.60048	-2.624E-10	285.130083	0.1000042	5.72466E-05	285.130083
-8.80047	-2.953E-10	285.154607	0.1000047	5.66495E-05	285.154607
-9.00048	-3.342E-10	285.179133	0.100005	5.60495E-05	285.179133
-9.20049	-3.38E-10	285.203682	0.1000043	5.54486E-05	285.203682
-9.40047	-3.029E-10	285.228195	0.1000036	5.48464E-05	285.228195
-9.60047	-2.78E-10	285.252736	0.1000041	5.4243E-05	285.252736
-9.80045	-3.481E-10	285.277257	0.1000046	5.36404E-05	285.277257
-10.00047	-3.805E-10	285.301848	0.1000033	5.30354E-05	285.301848
-10.20046	-3.244E-10	285.36159	0.1000041	5.2436E-05	285.36159
-10.40017	-3.209E-10	285.386176	0.0999953	5.18233E-05	285.386176
-10.60057	-3.028E-10	285.410712	0.1000128	5.12225E-05	285.410712
-10.80042	-3.441E-10	285.435324	0.1000089	5.06088E-05	285.435324
-11.00041	-3.59E-10	285.45991	0.1000082	4.99964E-05	285.45991
-11.20041	-3.669E-10	285.484425	0.1000094	4.93827E-05	285.484425
-11.40042	-2.359E-10	285.508954	0.1000065	4.87657E-05	285.508954
-11.60049	-3.21E-10	285.533476	0.1000041	4.81474E-05	285.533476
-11.80048	-3.837E-10	285.558261	0.1000048	4.7529E-05	285.558261
-12.00047	-4.076E-10	285.582789	0.100005	4.69092E-05	285.582789
#scan	iMeasureCycle=3	iMux=0	time=319.852	N=222	LocalTime=21/06/2023 23:02:08
#VGate(V)	IGate(A)	time(s)	VDrain(V)	IDrain(A)	time(s)
-12.00046	-7.27E-11	319.859513	0.1000043	4.69595E-05	319.859513
-11.80049	1.71E-11	319.884374	0.100005	4.75829E-05	319.884374
-11.60048	-2.14E-11	319.909998	0.1000051	4.82033E-05	319.909998
-11.40047	-2.24E-11	319.934538	0.1000047	4.88231E-05	319.934538
-11.20051	5.92E-11	319.959052	0.1000044	4.94413E-05	319.959052
-11.00047	1.506E-10	319.983652	0.1000048	5.00583E-05	319.983652
-10.80049	6.96E-11	320.008182	0.100006	5.06728E-05	320.008182
-10.60048	3.69E-11	320.032782	0.1000047	5.12875E-05	320.032782
-10.40049	9E-11	320.057295	0.1000059	5.19001E-05	320.057295
-10.20049	1.112E-10	320.081816	0.1000035	5.25095E-05	320.081816
-10.00049	1.249E-10	320.106525	0.1000048	5.31195E-05	320.106525
-9.80047	9.2E-11	320.131062	0.1000058	5.37288E-05	320.131062
-9.60048	8.62E-11	320.155591	0.1000051	5.43346E-05	320.155591
-9.40049	1.421E-10	320.180104	0.1000049	5.49407E-05	320.180104
-9.20048	1.796E-10	320.20465	0.1000051	5.55447E-05	320.20465
-9.00049	1.214E-10	320.229171	0.1000057	5.61446E-05	320.229171
-8.8005	8.18E-11	320.253691	0.1000045	5.67417E-05	320.253691
-8.60046	1.55E-10	320.278204	0.1000047	5.73369E-05	320.278204
-8.4005	7.34E-11	320.30272	0.1000064	5.79313E-05	320.30272
-8.20048	1.284E-10	320.327322	0.1000053	5.85224E-05	320.327322
-8.00051	1.404E-10	320.351876	0.100005	5.91131E-05	320.351876
-7.80048	1.561E-10	320.37648	0.1000035	5.97013E-05	320.37648
-7.60049	1.513E-10	320.422566	0.1000064	6.02883E-05	320.422566
-7.40047	1.526E-10	320.447108	0.1000054	6.08736E-05	320.447108
-7.20047	1.328E-10	320.471631	0.1000051	6.14596E-05	320.471631
-7.0005	1.693E-10	320.49629	0.1000049	6.20431E-05	320.49629
-6.80049	1.967E-10	320.520852	0.1000047	6.26264E-05	320.520852
-6.60047	2.204E-10	320.545365	0.1000054	6.32071E-05	320.545365
-6.40048	1.803E-10	320.569874	0.1000057	6.3785E-05	320.569874
-6.2005	1.583E-10	320.594404	0.1000053	6.43623E-05	320.594404
-6.00049	2.054E-10	320.618927	0.1000062	6.49395E-05	320.618927
-5.80048	2.489E-10	320.643441	0.1000057	6.55133E-05	320.643441
-5.60049	2.17E-10	320.667956	0.1000048	6.60845E-05	320.667956
-5.40048	2.056E-10	320.692557	0.1000047	6.66568E-05	320.692557
-5.20049	1.998E-10	320.71709	0.1000056	6.72273E-05	320.71709
-5.00049	2.375E-10	320.741603	0.1000045	6.77946E-05	320.741603
-4.80048	2.698E-10	320.766124	0.100004	6.83613E-05	320.766124
-4.60047	2.12E-10	320.790632	0.1000056	6.89273E-05	320.790632
-4.4005	1.704E-10	320.815168	0.1000058	6.94918E-05	320.815168
-4.20049	2.667E-10	320.839685	0.1000052	7.00533E-05	320.839685
-4.0005	2.948E-10	320.864202	0.1000044	7.06153E-05	320.864202
-3.80049	2.312E-10	320.924031	0.100005	7.11711E-05	320.924031
-3.60047	2.332E-10	320.948576	0.1000052	7.17309E-05	320.948576
-3.4005	2.229E-10	320.973091	0.1000049	7.22896E-05	320.973091
-3.2005	2.216E-10	320.99768	0.1000053	7.28465E-05	320.99768
-3.00048	2.731E-10	321.022392	0.1000052	7.34039E-05	321.022392
-2.8005	2.872E-10	321.046918	0.1000051	7.39601E-05	321.046918
-2.60048	2.372E-10	321.071424	0.1000051	7.45142E-05	321.071424
-2.40051	2.044E-10	321.095925	0.1000045	7.50685E-05	321.095925
-2.20049	2.938E-10	321.120456	0.1000049	7.56229E-05	321.120456
-2.00048	3.233E-10	321.144968	0.1000049	7.61761E-05	321.144968
-1.80051	2.711E-10	321.169475	0.1000053	7.67292E-05	321.169475
-1.60048	2.459E-10	321.193981	0.1000055	7.72832E-05	321.193981
-1.40048	2.853E-10	321.218588	0.1000057	7.78379E-05	321.218588
-1.20049	3.027E-10	321.243104	0.1000044	7.83926E-05	321.243104
-1.00047	2.975E-10	321.26764	0.1000042	7.89549E-05	321.26764
-0.80049	2.948E-10	321.292146	0.1000052	7.95274E-05	321.292146
-0.60048	2.508E-10	321.31668	0.1000053	8.01122E-05	321.31668
-0.40048	3.085E-10	321.341202	0.1000042	8.07089E-05	321.341202
-0.20048	3.692E-10	321.365825	0.1000042	8.13202E-05	321.365825
-0.00049	3.189E-10	321.42575	0.1000049	8.1936E-05	321.42575
0.19951	2.79E-10	321.450268	0.1000049	8.25676E-05	321.450268
0.39953	2.571E-10	321.474776	0.1000045	8.32039E-05	321.474776
0.59951	3.231E-10	321.49938	0.100005	8.38447E-05	321.49938
0.79949	3.346E-10	321.523948	0.1000051	8.44883E-05	321.523948
0.99953	3.247E-10	321.548462	0.1000035	8.51327E-05	321.548462
1.19949	3.166E-10	321.572997	0.1000045	8.57811E-05	321.572997
1.3995	2.94E-10	321.597504	0.1000049	8.64341E-05	321.597504
1.5995	3.499E-10	321.622061	0.100005	8.7088E-05	321.622061
1.79949	3.902E-10	321.646577	0.1000043	8.77445E-05	321.646577
1.99951	3.279E-10	321.671105	0.1000052	8.84045E-05	321.671105
2.1995	2.936E-10	321.695693	0.1000057	8.90659E-05	321.695693
2.39952	2.08E-10	321.720286	0.1000049	8.97275E-05	321.720286
2.5995	3.796E-10	321.744797	0.1000043	9.03901E-05	321.744797
2.7995	3.46E-10	321.769358	0.1000038	9.10556E-05	321.769358
2.99953	3.188E-10	321.793875	0.1000044	9.17211E-05	321.793875
3.1995	3.462E-10	321.818421	0.1000043	9.2386E-05	321.818421
3.3995	3.755E-10	321.842936	0.1000039	9.30518E-05	321.842936
3.59952	3.964E-10	321.867457	0.1000047	9.37164E-05	321.867457
3.7995	3.548E-10	321.927368	0.1000047	9.43729E-05	321.927368
3.9995	3.372E-10	321.9519	0.1000045	9.50361E-05	321.9519
4.1995	3.051E-10	321.976434	0.1000035	9.56949E-05	321.976434
4.39947	3.542E-10	322.000992	0.1000041	9.63536E-05	322.000992
4.59952	4.297E-10	322.025602	0.1000048	9.70084E-05	322.025602
4.79949	3.67E-10	322.050113	0.1000035	9.76586E-05	322.050113
4.99949	3.466E-10	322.074641	0.100004	9.83053E-05	322.074641
5.19951	3.749E-10	322.099428	0.1000039	9.89496E-05	322.099428
5.3995	4.02E-10	322.123967	0.1000041	9.95898E-05	322.123967
5.59951	4.18E-10	322.148498	0.1000034	0.0001002254	322.148498
5.7995	3.658E-10	322.173017	0.1000034	0.0001008583	322.173017
5.99951	3.396E-10	322.197533	0.1000039	0.0001014866	322.197533
6.1995	4.127E-10	322.222049	0.1000039	0.000102111	322.222049
6.39951	4.409E-10	322.246589	0.1000034	0.0001027297	322.246589
6.5995	3.964E-10	322.271107	0.1000036	0.0001033483	322.271107
6.79949	3.795E-10	322.295638	0.1000042	0.0001039618	322.295638
6.99948	3.985E-10	322.320155	0.1000043	0.000104568	322.320155
7.19949	4.033E-10	322.349835	0.0999999	0.000105256	322.349835
7.39949	3.858E-10	322.374433	0.1	0.000105854	322.374433
7.59947	3.504E-10	322.431743	0.1000001	0.000106447	322.431743
7.79952	3.403E-10	322.456269	0.1	0.000107041	322.456269
7.9995	3.985E-10	322.480778	0.1000001	0.00010763	322.480778
8.19951	4.386E-10	322.505351	0.1	0.000108213	322.505351
8.39951	4.214E-10	322.529915	0.1	0.000108796	322.529915
8.5995	3.974E-10	322.554442	0.1000001	0.000109371	322.554442
8.79951	3.891E-10	322.578956	0.1000001	0.000109947	322.578956
8.99952	4.489E-10	322.603472	0.0999999	0.000110516	322.603472
9.1995	4.798E-10	322.628012	0.0999999	0.000111083	322.628012
9.3995	4.113E-10	322.652521	0.1000001	0.000111649	322.652521
9.59951	3.894E-10	322.677053	0.0999997	0.00011221	322.677053
9.79951	4.424E-10	322.701654	0.0999998	0.000112771	322.701654
9.99949	4.724E-10	322.726184	0.1000001	0.000113331	322.726184
9.9995	4.197E-10	322.749531	0.1000001	0.000113329	322.749531
9.79952	2.825E-10	322.774041	0.0999998	0.000112772	322.774041
9.5995	4.756E-10	322.798564	0.1000001	0.000112214	322.798564
9.39951	2.542E-10	322.823049	0.1	0.000111654	322.823049
9.19953	2.582E-10	322.847548	0.0999999	0.000111087	322.847548
8.99953	1.685E-10	322.872057	0.1000002	0.000110518	322.872057
8.79951	2.074E-10	322.930775	0.1000001	0.000109943	322.930775
8.5995	1.383E-10	322.955297	0.0999998	0.000109357	322.955297
8.39951	1.071E-10	322.97982	0.1000001	0.000108773	322.97982
8.19951	1.307E-10	323.004386	0.1000001	0.000108183	323.004386
7.99951	1.076E-10	323.028923	0.0999999	0.00010759	323.028923
7.7995	5.96E-11	323.053481	0.0999999	0.000106993	323.053481
7.59951	7.3E-12	323.078	0.1	0.00010639	323.078
7.39951	7.56E-11	323.102534	0.1	0.000105787	323.102534
7.1995	8.98E-11	323.127069	0.0999999	0.00010518	323.127069
6.9995	3.55E-11	323.15161	0.1	0.000104568	323.15161
6.79952	2.05E-11	323.176118	0.1	0.000103953	323.176118
6.5995	1.19E-11	323.200644	0.1000001	0.000103336	323.200644
6.39949	3.01E-11	323.225156	0.0999998	0.000102712	323.225156
6.1995	4.14E-11	323.249687	0.0999999	0.000102087	323.249687
5.9995	-3.2E-12	323.27419	0.1	0.000101455	323.27419
5.79951	-5.08E-11	323.298735	0.1000001	0.000100821	323.298735
5.59952	-1.49E-11	323.323248	0.0999999	0.000100182	323.323248
5.39951	3.65E-11	323.347774	0.1000001	9.9541E-05	323.347774
5.19951	-3.25E-11	323.372382	0.1	9.8894E-05	323.372382
4.99951	1.14E-11	323.4324	0.1	9.8246E-05	323.4324
4.79952	-4.93E-11	323.457031	0.1	9.7594E-05	323.457031
4.59951	-2.67E-11	323.481538	0.1000002	9.6935E-05	323.481538
4.39948	-2.56E-11	323.506127	0.1	9.6276E-05	323.506127
4.19951	-4.29E-11	323.530695	0.0999996	9.5615E-05	323.530695
3.9995	-5.38E-11	323.555298	0.0999999	9.495E-05	323.555298
3.79951	-1.15E-10	323.579811	0.0999999	9.4287E-05	323.579811
3.59951	-7.15E-11	323.604333	0.0999999	9.3619E-05	323.604333
3.39951	-2.84E-11	323.62889	0.1	9.295E-05	323.62889
3.19952	-8.89E-11	323.6534	0.0999997	9.2283E-05	323.6534
2.99951	-1.365E-10	323.677919	0.0999999	9.1615E-05	323.677919
2.7995	-1.048E-10	323.702523	0.1	9.0946E-05	323.702523
2.59951	-7.97E-11	323.727034	0.1000001	9.0278E-05	323.727034
2.39952	-9.05E-11	323.751556	0.0999999	8.9612E-05	323.751556
2.1995	-1.326E-10	323.776097	0.1000002	8.8946E-05	323.776097
1.9995	-1.607E-10	323.800601	0.1000001	8.8284E-05	323.800601
1.7995	-1.011E-10	323.825125	0.0999998	8.762E-05	323.825125
1.5995	-1.019E-10	323.852986	0.1000046	8.68785E-05	323.852986
1.39952	-1.502E-10	323.877497	0.1000044	8.6224E-05	323.877497
1.19951	-9.82E-11	323.936632	0.1000045	8.55754E-05	323.936632
0.99949	-1.353E-10	323.961156	0.1000043	8.49237E-05	323.961156
0.79952	-1.227E-10	323.985695	0.100004	8.42774E-05	323.985695
0.59957	-4.93E-11	324.010262	0.1000067	8.36361E-05	324.010262
0.3996	-1.583E-10	324.034882	0.1000059	8.29947E-05	324.034882
0.19956	-2.066E-10	324.059392	0.1000065	8.23601E-05	324.059392
-0.00043	-1.522E-10	324.083907	0.1000062	8.17313E-05	324.083907
-0.20042	-1.181E-10	324.108504	0.1000067	8.11143E-05	324.108504
-0.40044	-1.731E-10	324.133033	0.1000064	8.05106E-05	324.133033
-0.60041	-1.856E-10	324.157564	0.1000065	7.992E-05	324.157564
-0.80043	-2.066E-10	324.182086	0.1000058	7.93439E-05	324.182086
-1.00042	-1.537E-10	324.206605	0.1000062	7.87795E-05	324.206605
-1.2004	-4.01E-11	324.231129	0.1000065	7.82229E-05	324.231129
-1.40048	-2.605E-10	324.255661	0.1000045	7.76661E-05	324.255661
-1.60047	-2.381E-10	324.280178	0.100005	7.71147E-05	324.280178
-1.80049	-1.842E-10	324.30472	0.1000052	7.65622E-05	324.30472
-2.00047	-1.622E-10	324.329221	0.1000052	7.60102E-05	324.329221
-2.20048	-2.189E-10	324.353754	0.1000044	7.54567E-05	324.353754
-2.4005	-2.295E-10	324.378368	0.1000041	7.49031E-05	324.378368
-2.60047	-1.853E-10	324.435538	0.1000047	7.43519E-05	324.435538
-2.80049	-2.445E-10	324.460083	0.1000055	7.37979E-05	324.460083
-3.00048	-1.954E-10	324.484639	0.1000046	7.32407E-05	324.484639
-3.20049	-1.727E-10	324.50925	0.1000045	7.26854E-05	324.50925
-3.4005	-2.269E-10	324.533822	0.1000052	7.21285E-05	324.533822
-3.60046	-2.338E-10	324.558361	0.100005	7.15689E-05	324.558361
-3.80048	-2.51E-10	324.582874	0.1000047	7.10106E-05	324.582874
-4.00049	-2.227E-10	324.607396	0.1000036	7.04496E-05	324.607396
-4.20048	-2E-10	324.631924	0.1000047	6.98894E-05	324.631924
-4.40049	-2.663E-10	324.656513	0.1000057	6.93275E-05	324.656513
-4.60045	-3.032E-10	324.681034	0.1000043	6.87624E-05	324.681034
-4.80045	-2.39E-10	324.705631	0.1000044	6.81971E-05	324.705631
-5.00047	-2.024E-10	324.730159	0.1000053	6.76295E-05	324.730159
-5.20048	-2.656E-10	324.754631	0.1000049	6.70615E-05	324.754631
-5.40045	-3.072E-10	324.779165	0.1000053	6.64916E-05	324.779165
-5.60047	-2.576E-10	324.803664	0.1000044	6.59192E-05	324.803664
-5.80045	-2.477E-10	324.828206	0.1000051	6.53474E-05	324.828206
-6.0005	-2.66E-10	324.852726	0.1000054	6.47726E-05	324.852726
-6.2005	-2.839E-10	324.877253	0.1000048	6.41959E-05	324.877253
-6.40049	-2.284E-10	324.937152	0.1000051	6.36202E-05	324.937152
-6.60048	-3.186E-10	324.961702	0.1000054	6.30407E-05	324.961702
-6.80046	-2.568E-10	324.986239	0.1000043	6.24587E-05	324.986239
-7.00048	-2.066E-10	325.010823	0.1000042	6.18748E-05	325.010823
-7.20048	-2.944E-10	325.035338	0.1000043	6.12896E-05	325.035338
-7.40048	-3.428E-10	325.059858	0.1000049	6.07034E-05	325.059858
-7.60048	-2.746E-10	325.084383	0.1000051	6.01164E-05	325.084383
-7.80044	-2.785E-10	325.108903	0.1000045	5.9527E-05	325.108903
-8.00046	-2.816E-10	325.133438	0.1000046	5.8935E-05	325.133438
-8.20047	-3.103E-10	325.158008	0.1000041	5.83423E-05	325.158008
-8.40048	-3.49E-10	325.182537	0.1000056	5.77483E-05	325.182537
-8.60048	-2.902E-10	325.207052	0.1000042	5.71518E-05	325.207052
-8.80048	-2.687E-10	325.23157	0.1000045	5.65539E-05	325.23157
-9.00047	-3.22E-10	325.256087	0.1000046	5.59542E-05	325.256087
-9.20045	-3.647E-10	325.280608	0.1000053	5.5354E-05	325.280608
-9.40046	-3.265E-10	325.305118	0.1000054	5.47517E-05	325.305118
-9.60049	-2.941E-10	325.329625	0.1000048	5.4148E-05	325.329625
-9.80046	-3.113E-10	325.354138	0.100004	5.35454E-05	325.354138
-10.00047	-3.554E-10	325.378757	0.1000055	5.29405E-05	325.378757
-10.20048	-2.929E-10	325.439121	0.1000047	5.23411E-05	325.439121
-10.40047	-3.263E-10	325.463658	0.1000039	5.17326E-05	325.463658
-10.60047	-3.098E-10	325.488198	0.1000043	5.11231E-05	325.488198
-10.80047	-2.914E-10	325.512796	0.1000041	5.05113E-05	325.512796
-11.00047	-3.361E-10	325.537381	0.1000042	4.98985E-05	325.537381
-11.20048	-3.882E-10	325.561827	0.1000034	4.92834E-05	325.561827
-11.40048	-3.379E-10	325.586376	0.1000035	4.86688E-05	325.586376
-11.60049	-2.984E-10	325.610888	0.1000048	4.80526E-05	325.610888
-11.80049	-3.469E-10	325.635427	0.1000048	4.74334E-05	325.635427
-12.00047	-3.723E-10	325.659951	0.1000043	4.68136E-05	325.659951
