#scan	iMeasureCycle=1	iMux=0	time=0.038	N=222	LocalTime=22/06/2023 09:02:51
#VGate(V)	IGate(A)	time(s)	VDrain(V)	IDrain(A)	time(s)
-12.0005	-3.1492E-09	0.063869	0.1000062	6.89871E-05	0.063869
-11.80047	-2.9818E-09	0.088724	0.1000064	6.95449E-05	0.088724
-11.60049	-1.2104E-09	0.113238	0.1000052	7.01003E-05	0.113238
-11.4005	-5.047E-10	0.137766	0.1000056	7.06528E-05	0.137766
-11.20051	-3.399E-10	0.162494	0.1000057	7.12023E-05	0.162494
-11.00049	-2.278E-10	0.187029	0.1000053	7.17498E-05	0.187029
-10.80051	-1.55E-10	0.211599	0.1000056	7.22937E-05	0.211599
-10.60048	-9.55E-11	0.236126	0.1000062	7.28364E-05	0.236126
-10.40049	-9.27E-11	0.260685	0.1000061	7.33777E-05	0.260685
-10.20051	-3.35E-11	0.285226	0.1000042	7.39133E-05	0.285226
-10.00049	-2.56E-11	0.309748	0.1000058	7.44521E-05	0.309748
-9.80048	-1.13E-11	0.334297	0.1000049	7.49837E-05	0.334297
-9.60048	1.79E-11	0.358811	0.1000053	7.55157E-05	0.358811
-9.40048	3.38E-11	0.383344	0.1000053	7.60439E-05	0.383344
-9.20051	2.35E-11	0.407861	0.1000048	7.65726E-05	0.407861
-9.00047	4.64E-11	0.432463	0.1000064	7.70933E-05	0.432463
-8.80049	7.52E-11	0.456979	0.1000055	7.76134E-05	0.456979
-8.60049	7.05E-11	0.481545	0.1000044	7.8129E-05	0.481545
-8.40049	7.1E-11	0.506046	0.1000051	7.86429E-05	0.506046
-8.20049	8.13E-11	0.530553	0.1000049	7.91551E-05	0.530553
-8.00051	1.134E-10	0.555125	0.100005	7.96646E-05	0.555125
-7.80048	1.04E-10	0.579641	0.1000052	8.01729E-05	0.579641
-7.60049	6.77E-11	0.627119	0.1000054	8.06755E-05	0.627119
-7.40051	1.047E-10	0.651722	0.1000043	8.11815E-05	0.651722
-7.20049	1.087E-10	0.676287	0.1000051	8.16857E-05	0.676287
-7.00049	1.426E-10	0.700809	0.1000056	8.2187E-05	0.700809
-6.80048	1.309E-10	0.725376	0.1000054	8.26874E-05	0.725376
-6.60051	1.366E-10	0.749904	0.1000049	8.31852E-05	0.749904
-6.40048	1.505E-10	0.77443	0.1000057	8.36826E-05	0.77443
-6.20049	1.661E-10	0.798946	0.100005	8.41758E-05	0.798946
-6.00048	1.575E-10	0.823472	0.1000051	8.46704E-05	0.823472
-5.8005	1.449E-10	0.847991	0.1000047	8.51618E-05	0.847991
-5.6005	1.789E-10	0.872556	0.1000041	8.56509E-05	0.872556
-5.4005	1.86E-10	0.897128	0.1000042	8.61401E-05	0.897128
-5.20048	2.835E-10	0.921671	0.1000046	8.66286E-05	0.921671
-5.00051	2.02E-10	0.946186	0.1000053	8.71132E-05	0.946186
-4.8005	2.042E-10	0.970711	0.1000048	8.75977E-05	0.970711
-4.60049	2.05E-10	0.995209	0.1000053	8.80824E-05	0.995209
-4.40049	2.155E-10	1.019733	0.100005	8.8565E-05	1.019733
-4.20047	2.231E-10	1.044231	0.1000051	8.90436E-05	1.044231
-4.00048	2.071E-10	1.068855	0.1000051	8.95232E-05	1.068855
-3.80049	1.429E-10	1.128538	0.1000046	8.99975E-05	1.128538
-3.60049	2.17E-10	1.153162	0.1000054	9.04782E-05	1.153162
-3.4005	2.28E-10	1.177766	0.1000052	9.09546E-05	1.177766
-3.20051	5.98E-11	1.202291	0.1000046	9.14282E-05	1.202291
-3.00049	2.117E-10	1.22687	0.1000045	9.19034E-05	1.22687
-2.80048	2.309E-10	1.251396	0.1000052	9.23769E-05	1.251396
-2.60049	2.283E-10	1.275963	0.1000049	9.28487E-05	1.275963
-2.4005	2.269E-10	1.300483	0.1000039	9.33185E-05	1.300483
-2.2005	2.459E-10	1.325015	0.1000045	9.37889E-05	1.325015
-2.00049	2.437E-10	1.349536	0.1000047	9.42606E-05	1.349536
-1.80052	2.484E-10	1.374072	0.100004	9.47299E-05	1.374072
-1.60049	2.68E-10	1.398587	0.1000039	9.52032E-05	1.398587
-1.40051	2.663E-10	1.423113	0.1000042	9.56824E-05	1.423113
-1.20051	2.516E-10	1.447631	0.1000041	9.61679E-05	1.447631
-1.00049	2.609E-10	1.472179	0.100005	9.66621E-05	1.472179
-0.80051	3.027E-10	1.496689	0.1000045	9.71661E-05	1.496689
-0.60049	2.74E-10	1.521213	0.1000037	9.76785E-05	1.521213
-0.40051	2.758E-10	1.545853	0.1000039	9.81975E-05	1.545853
-0.2005	2.959E-10	1.570413	0.1000044	9.87243E-05	1.570413
-0.00052	2.374E-10	1.630212	0.1000039	9.92482E-05	1.630212
0.1995	2.645E-10	1.654734	0.100004	9.97829E-05	1.654734
0.39951	2.994E-10	1.67942	0.1000038	0.0001003202	1.67942
0.59951	2.973E-10	1.703931	0.1000039	0.0001008559	1.703931
0.7995	2.768E-10	1.728517	0.1000042	0.0001013949	1.728517
0.99949	2.996E-10	1.753037	0.1000039	0.0001019361	1.753037
1.19952	3.276E-10	1.777591	0.1000036	0.0001024779	1.777591
1.39952	3.109E-10	1.8021	0.1000034	0.0001030212	1.8021
1.5995	3.08E-10	1.826634	0.1000042	0.0001035671	1.826634
1.79949	3.257E-10	1.851158	0.1000039	0.0001041137	1.851158
1.9995	2.561E-10	1.875695	0.1000055	0.0001046624	1.875695
2.19956	3.019E-10	1.905333	0.1000001	0.000105286	1.905333
2.39956	3.192E-10	1.92986	0.0999999	0.000105838	1.92986
2.59955	3.385E-10	1.954361	0.1	0.000106389	1.954361
2.79954	3.424E-10	1.978978	0.0999999	0.000106939	1.978978
2.99957	3.437E-10	2.003501	0.1000001	0.000107491	2.003501
3.19954	3.365E-10	2.02801	0.0999999	0.000108041	2.02801
3.39955	3.435E-10	2.052517	0.1	0.000108593	2.052517
3.59957	3.769E-10	2.077041	0.0999998	0.000109142	2.077041
3.79954	2.963E-10	2.134525	0.0999999	0.000109686	2.134525
3.99953	3.56E-10	2.159065	0.0999998	0.000110239	2.159065
4.19956	3.49E-10	2.183672	0.0999999	0.000110786	2.183672
4.39957	3.446E-10	2.208217	0.1	0.000111331	2.208217
4.59958	3.584E-10	2.232785	0.1000002	0.000111876	2.232785
4.79955	3.796E-10	2.257323	0.1	0.000112417	2.257323
4.99955	3.756E-10	2.281858	0.0999998	0.000112955	2.281858
5.19954	3.627E-10	2.306381	0.0999998	0.000113492	2.306381
5.39954	3.667E-10	2.3309	0.0999998	0.000114026	2.3309
5.59958	3.934E-10	2.355423	0.0999999	0.000114558	2.355423
5.79954	3.861E-10	2.379939	0.1000001	0.000115087	2.379939
5.9995	4.373E-10	2.404452	0.1	0.000115613	2.404452
6.19948	3.87E-10	2.428962	0.1000001	0.000116136	2.428962
6.39951	3.944E-10	2.453481	0.0999998	0.000116656	2.453481
6.5995	4.182E-10	2.478041	0.1000002	0.000117172	2.478041
6.79951	4.031E-10	2.502557	0.1000001	0.000117688	2.502557
6.99947	3.979E-10	2.527079	0.1000001	0.000118199	2.527079
7.19951	4.118E-10	2.551651	0.0999999	0.000118707	2.551651
7.39949	4.108E-10	2.576196	0.1	0.000119214	2.576196
7.5995	3.58E-10	2.633604	0.1	0.000119712	2.633604
7.7995	3.95E-10	2.658123	0.1	0.000120214	2.658123
7.9995	4.148E-10	2.682701	0.0999996	0.000120711	2.682701
8.19948	4.07E-10	2.707212	0.1	0.000121204	2.707212
8.3995	4.051E-10	2.731805	0.0999999	0.000121695	2.731805
8.59949	4.305E-10	2.756315	0.1000001	0.000122183	2.756315
8.7995	4.289E-10	2.780863	0.0999999	0.000122671	2.780863
8.99951	4.331E-10	2.805364	0.1000001	0.000123154	2.805364
9.19949	4.204E-10	2.829881	0.1	0.000123636	2.829881
9.3995	4.46E-10	2.854402	0.1000001	0.000124119	2.854402
9.59948	4.482E-10	2.879276	0.1000001	0.000124597	2.879276
9.7995	4.32E-10	2.903824	0.0999999	0.000125077	2.903824
9.99949	4.264E-10	2.928333	0.0999999	0.000125552	2.928333
9.99948	3.97E-10	2.951697	0.0999999	0.000125551	2.951697
9.7995	3.041E-10	2.976207	0.0999999	0.000125078	2.976207
9.59951	2.665E-10	3.000742	0.1000001	0.000124604	3.000742
9.39951	2.476E-10	3.025257	0.0999998	0.000124126	3.025257
9.19951	1.956E-10	3.049785	0.0999997	0.000123644	3.049785
8.9995	1.74E-10	3.07433	0.1	0.000123162	3.07433
8.79952	1.956E-10	3.131067	0.0999998	0.000122672	3.131067
8.59953	1.611E-10	3.155574	0.1000001	0.000122177	3.155574
8.39952	1.523E-10	3.180195	0.1000001	0.000121682	3.180195
8.19951	1.332E-10	3.204762	0.0999998	0.000121181	3.204762
7.99948	9.38E-11	3.229336	0.1	0.000120678	3.229336
7.79951	1.005E-10	3.253851	0.1000001	0.000120171	3.253851
7.59951	1.072E-10	3.278403	0.1	0.000119662	3.278403
7.39952	7.37E-11	3.302938	0.1000002	0.000119153	3.302938
7.19949	4.22E-11	3.327463	0.1000001	0.00011864	3.327463
6.9995	6.82E-11	3.351981	0.0999999	0.000118126	3.351981
6.79951	4.79E-11	3.376493	0.0999999	0.000117607	3.376493
6.5995	3.25E-11	3.401023	0.1	0.000117087	3.401023
6.39951	2.95E-11	3.425535	0.1	0.000116562	3.425535
6.1995	1.44E-11	3.450044	0.1	0.000116039	3.450044
5.99949	1.74E-11	3.474556	0.0999998	0.00011551	3.474556
5.7995	4.7E-12	3.499163	0.0999999	0.000114978	3.499163
5.59951	-3E-13	3.523673	0.0999999	0.000114444	3.523673
5.3995	-9.6E-12	3.548261	0.1000001	0.000113907	3.548261
5.1995	-2.63E-11	3.572783	0.1000003	0.000113367	3.572783
4.99952	3.53E-11	3.634724	0.1	0.000112825	3.634724
4.7995	8E-12	3.659279	0.1	0.00011228	3.659279
4.59949	-1.9E-11	3.6839	0.0999999	0.000111732	3.6839
4.39951	-4.61E-11	3.708435	0.1	0.000111186	3.708435
4.1995	-3.47E-11	3.733006	0.1	0.000110635	3.733006
3.9995	-3.9E-11	3.75753	0.1	0.000110083	3.75753
3.79949	-6.39E-11	3.782066	0.1000001	0.000109531	3.782066
3.59952	-6.87E-11	3.806616	0.1000001	0.000108976	3.806616
3.39951	-5.63E-11	3.831121	0.1	0.000108421	3.831121
3.19951	-7.83E-11	3.85566	0.1000001	0.000107868	3.85566
2.99951	-8.19E-11	3.880211	0.1	0.000107313	3.880211
2.79949	-7.87E-11	3.904789	0.1	0.00010676	3.904789
2.59951	-1.007E-10	3.929303	0.0999999	0.000106204	3.929303
2.39952	-1.065E-10	3.953832	0.1000001	0.000105653	3.953832
2.19949	-1.061E-10	3.978339	0.1	0.000105099	3.978339
1.99952	-9.64E-11	4.002881	0.1	0.000104548	4.002881
1.79951	-1.271E-10	4.027385	0.0999999	0.000103999	4.027385
1.5995	-1.35E-10	4.051925	0.0999996	0.000103451	4.051925
1.39951	-1.142E-10	4.076438	0.0999999	0.000102905	4.076438
1.19952	-4.96E-11	4.137551	0.1000002	0.000102364	4.137551
0.9995	-1.15E-10	4.162122	0.0999999	0.000101818	4.162122
0.79949	-1.338E-10	4.186725	0.0999999	0.000101274	4.186725
0.59952	-1.192E-10	4.211265	0.0999999	0.000100734	4.211265
0.39955	-1.382E-10	4.235827	0.1000001	0.000100195	4.235827
0.1995	-1.538E-10	4.260342	0.1	9.9657E-05	4.260342
-0.0005	-1.447E-10	4.284889	0.0999999	9.9121E-05	4.284889
-0.20049	-1.733E-10	4.309422	0.0999999	9.8592E-05	4.309422
-0.40048	-1.718E-10	4.333942	0.1000002	9.8067E-05	4.333942
-0.60049	-1.672E-10	4.35847	0.1000002	9.7549E-05	4.35847
-0.80049	-1.759E-10	4.382993	0.1000002	9.704E-05	4.382993
-1.0005	-1.859E-10	4.407508	0.1	9.6544E-05	4.407508
-1.2005	-1.947E-10	4.432035	0.0999999	9.6055E-05	4.432035
-1.40049	-1.87E-10	4.456565	0.1	9.5573E-05	4.456565
-1.60048	-9.01E-11	4.481089	0.0999999	9.51E-05	4.481089
-1.8005	-1.966E-10	4.505613	0.1000002	9.4628E-05	4.505613
-2.0005	-1.993E-10	4.530162	0.1000001	9.4158E-05	4.530162
-2.2005	-1.965E-10	4.5549	0.1	9.3691E-05	4.5549
-2.40051	-2.071E-10	4.579449	0.1000002	9.322E-05	4.579449
-2.60047	-1.808E-10	4.641223	0.1000002	9.2752E-05	4.641223
-2.80049	-2.042E-10	4.66574	0.1	9.2279E-05	4.66574
-3.0005	-2.11E-10	4.690327	0.1000001	9.1805E-05	4.690327
-3.20048	-2.24E-10	4.714857	0.0999998	9.1331E-05	4.714857
-3.4005	-2.241E-10	4.739424	0.0999999	9.0857E-05	4.739424
-3.60047	-2.281E-10	4.763941	0.1000001	9.0381E-05	4.763941
-3.80047	-2.518E-10	4.788489	0.1	8.9902E-05	4.788489
-4.00047	-2.407E-10	4.813114	0.1	8.9426E-05	4.813114
-4.20049	-2.317E-10	4.837668	0.1	8.8946E-05	4.837668
-4.40045	-2.412E-10	4.86219	0.1000001	8.8463E-05	4.86219
-4.60049	-2.275E-10	4.89008	0.1000044	8.79009E-05	4.89008
-4.80047	-2.586E-10	4.914694	0.1000039	8.74187E-05	4.914694
-5.0005	-2.459E-10	4.939212	0.100005	8.69349E-05	4.939212
-5.2005	-2.631E-10	4.963743	0.1000041	8.64484E-05	4.963743
-5.40051	-2.788E-10	4.988258	0.1000042	8.59607E-05	4.988258
-5.60046	-2.672E-10	5.012804	0.1000055	8.54706E-05	5.012804
-5.80049	-2.687E-10	5.037322	0.100005	8.49801E-05	5.037322
-6.0005	-2.663E-10	5.061846	0.1000044	8.44862E-05	5.061846
-6.2005	-2.82E-10	5.086369	0.1000052	8.39912E-05	5.086369
-6.40049	-2.241E-10	5.145462	0.1000046	8.34973E-05	5.145462
-6.60047	-2.68E-10	5.170008	0.1000047	8.29993E-05	5.170008
-6.80049	-2.652E-10	5.194614	0.1000055	8.2499E-05	5.194614
-7.00047	-2.752E-10	5.219165	0.1000053	8.19952E-05	5.219165
-7.20049	-2.781E-10	5.243735	0.1000045	8.14919E-05	5.243735
-7.40049	-2.875E-10	5.268536	0.1000047	8.09851E-05	5.268536
-7.60049	-2.986E-10	5.293072	0.100005	8.04776E-05	5.293072
-7.80047	-2.966E-10	5.317598	0.1000042	7.99677E-05	5.317598
-8.0005	-2.821E-10	5.34213	0.1000045	7.94561E-05	5.34213
-8.20047	-3.129E-10	5.366639	0.1000055	7.89429E-05	5.366639
-8.4005	-3.181E-10	5.391174	0.100006	7.84265E-05	5.391174
-8.60047	-2.945E-10	5.415684	0.1000058	7.79084E-05	5.415684
-8.80048	-3.117E-10	5.440221	0.1000055	7.73878E-05	5.440221
-9.00048	-3.176E-10	5.464723	0.1000056	7.68639E-05	5.464723
-9.20048	-3.35E-10	5.489255	0.1000043	7.63395E-05	5.489255
-9.40046	-3.234E-10	5.513763	0.1000052	7.58128E-05	5.513763
-9.6005	-3.12E-10	5.538294	0.1000054	7.52847E-05	5.538294
-9.80047	-3.364E-10	5.56286	0.100006	7.47582E-05	5.56286
-10.00048	-3.298E-10	5.58739	0.1000051	7.42278E-05	5.58739
-10.20048	-2.942E-10	5.644483	0.100006	7.37017E-05	5.644483
-10.40047	-3.072E-10	5.669003	0.1000056	7.31661E-05	5.669003
-10.6005	-3.221E-10	5.693646	0.1000054	7.26281E-05	5.693646
-10.80047	-3.267E-10	5.718171	0.1000055	7.20881E-05	5.718171
-11.00046	-3.295E-10	5.742766	0.1000062	7.15468E-05	5.742766
-11.20048	-3.409E-10	5.767287	0.100005	7.10013E-05	5.767287
-11.40047	-3.395E-10	5.791839	0.1000052	7.04539E-05	5.791839
-11.60048	-3.512E-10	5.816358	0.1000058	6.99043E-05	5.816358
-11.80048	-3.407E-10	5.840889	0.1000058	6.9352E-05	5.840889
-12.00048	-3.476E-10	5.865403	0.1000063	6.87971E-05	5.865403
#scan	iMeasureCycle=2	iMux=0	time=279.844	N=222	LocalTime=22/06/2023 09:07:31
#VGate(V)	IGate(A)	time(s)	VDrain(V)	IDrain(A)	time(s)
-12.00049	-8.1E-11	279.851502	0.1000045	6.89039E-05	279.851502
-11.8005	-2.29E-11	279.876385	0.1000054	6.94615E-05	279.876385
-11.6005	-1.22E-11	279.901992	0.1000058	7.0016E-05	279.901992
-11.40049	2.46E-11	279.926533	0.1000047	7.05668E-05	279.926533
-11.20049	4.28E-11	279.951039	0.1000053	7.11161E-05	279.951039
-11.00048	3.73E-11	279.975655	0.1000046	7.16639E-05	279.975655
-10.80049	6.57E-11	280.00018	0.1000052	7.22081E-05	280.00018
-10.60049	7.48E-11	280.024696	0.1000045	7.27513E-05	280.024696
-10.40051	6.79E-11	280.049202	0.1000044	7.32921E-05	280.049202
-10.2005	7.44E-11	280.073742	0.1000049	7.38298E-05	280.073742
-10.0005	9.95E-11	280.09825	0.1000056	7.43672E-05	280.09825
-9.80048	8.89E-11	280.122845	0.1000046	7.49E-05	280.122845
-9.60049	1.008E-10	280.147352	0.1000062	7.54326E-05	280.147352
-9.4005	1.155E-10	280.171893	0.1000055	7.59628E-05	280.171893
-9.20049	1.175E-10	280.196407	0.1000055	7.6491E-05	280.196407
-9.00048	1.264E-10	280.221031	0.100005	7.70131E-05	280.221031
-8.80048	2.727E-10	280.245547	0.1000059	7.75336E-05	280.245547
-8.60049	1.476E-10	280.270079	0.1000059	7.80519E-05	280.270079
-8.4005	1.497E-10	280.294606	0.1000062	7.85668E-05	280.294606
-8.20048	1.427E-10	280.319133	0.1000059	7.90787E-05	280.319133
-8.00049	1.731E-10	280.343655	0.1000054	7.95899E-05	280.343655
-7.80047	1.635E-10	280.368161	0.1000052	8.00993E-05	280.368161
-7.60051	1.252E-10	280.414883	0.1000057	8.06043E-05	280.414883
-7.40049	1.524E-10	280.439417	0.1000059	8.11109E-05	280.439417
-7.2005	1.53E-10	280.463992	0.1000065	8.16169E-05	280.463992
-7.00049	1.794E-10	280.488511	0.1000046	8.21168E-05	280.488511
-6.80049	1.768E-10	280.513101	0.1000059	8.26196E-05	280.513101
-6.60051	1.693E-10	280.537626	0.100006	8.31184E-05	280.537626
-6.40048	1.785E-10	280.562147	0.1000052	8.36161E-05	280.562147
-6.20048	1.924E-10	280.586667	0.1000046	8.41124E-05	280.586667
-6.00049	1.955E-10	280.611195	0.100005	8.46064E-05	280.611195
-5.80049	1.892E-10	280.635707	0.1000051	8.50986E-05	280.635707
-5.6005	6.28E-11	280.660253	0.1000045	8.55888E-05	280.660253
-5.4005	1.97E-10	280.684729	0.1000045	8.60795E-05	280.684729
-5.20049	1.969E-10	280.709272	0.1000054	8.65675E-05	280.709272
-5.0005	2.04E-10	280.733866	0.1000051	8.70528E-05	280.733866
-4.80051	2.176E-10	280.7584	0.1000045	8.75373E-05	280.7584
-4.60046	2.121E-10	280.782925	0.1000049	8.8021E-05	280.782925
-4.40051	2.109E-10	280.807515	0.1000037	8.85019E-05	280.807515
-4.20049	2.383E-10	280.832035	0.1000048	8.89828E-05	280.832035
-4.00047	2.293E-10	280.856571	0.1000049	8.94634E-05	280.856571
-3.80048	1.656E-10	280.916419	0.1000045	8.99381E-05	280.916419
-3.6005	2.36E-10	280.940952	0.1000047	9.04162E-05	280.940952
-3.40052	2.266E-10	280.965471	0.1000045	9.08927E-05	280.965471
-3.20049	2.148E-10	280.990088	0.1000048	9.13675E-05	280.990088
-3.0005	2.371E-10	281.014651	0.1000045	9.18427E-05	281.014651
-2.80048	2.524E-10	281.039181	0.1000049	9.23172E-05	281.039181
-2.6005	2.364E-10	281.063724	0.1000039	9.27886E-05	281.063724
-2.40048	2.467E-10	281.088256	0.1000048	9.32607E-05	281.088256
-2.20049	2.618E-10	281.112787	0.1000037	9.37303E-05	281.112787
-2.00051	2.551E-10	281.137351	0.1000047	9.42023E-05	281.137351
-1.80049	2.566E-10	281.161967	0.1000046	9.46733E-05	281.161967
-1.60049	2.638E-10	281.186489	0.1000043	9.5148E-05	281.186489
-1.4005	2.75E-10	281.21103	0.1000052	9.56262E-05	281.21103
-1.20051	2.688E-10	281.235613	0.1000047	9.61101E-05	281.235613
-1.00048	2.651E-10	281.260134	0.1000042	9.66035E-05	281.260134
-0.8005	2.969E-10	281.284661	0.1000041	9.71076E-05	281.284661
-0.60049	2.867E-10	281.309189	0.1000031	9.76196E-05	281.309189
-0.40048	2.732E-10	281.333707	0.1000053	9.81416E-05	281.333707
-0.20049	2.916E-10	281.358227	0.1000036	9.86671E-05	281.358227
-0.0005	2.412E-10	281.41806	0.1000045	9.91943E-05	281.41806
0.1995	2.685E-10	281.442578	0.1000041	9.97288E-05	281.442578
0.39952	2.761E-10	281.467153	0.1000036	0.0001002671	281.467153
0.59952	2.976E-10	281.491677	0.100004	0.0001008051	281.491677
0.79949	2.72E-10	281.522513	0.100004	0.0001013438	281.522513
0.99951	3.123E-10	281.547031	0.1000042	0.0001018866	281.547031
1.19951	2.997E-10	281.57155	0.1000037	0.0001024281	281.57155
1.39951	3.006E-10	281.59607	0.1000042	0.0001029733	281.59607
1.59952	3.167E-10	281.620594	0.1000036	0.0001035178	281.620594
1.7995	5.158E-10	281.645125	0.1000043	0.0001040658	281.645125
1.99949	3.392E-10	281.66964	0.1000034	0.0001046138	281.66964
2.19949	3.045E-10	281.699199	0.0999999	0.000105242	281.699199
2.39948	3.246E-10	281.723807	0.0999999	0.00010579	281.723807
2.59949	3.383E-10	281.748531	0.0999999	0.000106343	281.748531
2.79949	3.508E-10	281.773055	0.0999997	0.000106893	281.773055
2.99949	3.395E-10	281.797659	0.1	0.000107446	281.797659
3.19949	3.375E-10	281.822213	0.0999999	0.000107997	281.822213
3.3995	3.442E-10	281.846726	0.1	0.000108549	281.846726
3.5995	3.586E-10	281.87124	0.0999999	0.000109099	281.87124
3.79948	2.991E-10	281.923079	0.1	0.000109644	281.923079
3.99952	3.423E-10	281.947591	0.0999999	0.000110198	281.947591
4.19949	3.523E-10	281.972107	0.0999998	0.000110746	281.972107
4.39949	2.328E-10	281.99662	0.1	0.000111292	281.99662
4.5995	3.259E-10	282.021221	0.1	0.000111838	282.021221
4.7995	3.517E-10	282.04573	0.1000001	0.000112383	282.04573
4.99949	3.668E-10	282.070245	0.0999998	0.000112922	282.070245
5.19951	3.526E-10	282.094779	0.0999999	0.000113461	282.094779
5.39951	3.539E-10	282.119387	0.1	0.000113996	282.119387
5.5995	3.814E-10	282.143966	0.1000001	0.000114527	282.143966
5.7995	3.679E-10	282.168485	0.1	0.000115056	282.168485
5.99947	3.656E-10	282.193023	0.1	0.000115583	282.193023
6.1995	3.841E-10	282.217553	0.0999999	0.000116107	282.217553
6.39949	3.875E-10	282.242145	0.1	0.00011663	282.242145
6.59952	3.831E-10	282.266661	0.1	0.000117146	282.266661
6.79951	3.845E-10	282.291274	0.1	0.000117661	282.291274
6.99947	3.979E-10	282.315816	0.0999999	0.000118175	282.315816
7.19949	4.02E-10	282.340327	0.0999999	0.000118683	282.340327
7.39948	3.867E-10	282.364838	0.1000001	0.000119191	282.364838
7.5995	3.476E-10	282.422006	0.1	0.000119691	282.422006
7.79948	3.71E-10	282.446547	0.0999999	0.000120192	282.446547
7.99947	3.939E-10	282.471118	0.0999999	0.00012069	282.471118
8.1995	3.959E-10	282.495628	0.0999997	0.000121185	282.495628
8.39949	3.928E-10	282.520193	0.1	0.000121674	282.520193
8.5995	4.008E-10	282.544706	0.1	0.000122163	282.544706
8.79951	4.138E-10	282.569214	0.0999999	0.000122651	282.569214
8.99949	4.063E-10	282.59382	0.0999999	0.000123135	282.59382
9.1995	4.068E-10	282.618353	0.1	0.000123619	282.618353
9.3995	4.232E-10	282.642844	0.1000002	0.0001241	282.642844
9.59949	4.199E-10	282.667365	0.1	0.00012458	282.667365
9.79951	4.155E-10	282.691884	0.0999999	0.00012506	282.691884
9.99948	4.114E-10	282.716414	0.0999999	0.000125535	282.716414
9.99949	3.772E-10	282.739857	0.1	0.000125536	282.739857
9.79951	2.81E-10	282.764379	0.1000001	0.000125063	282.764379
9.59951	2.304E-10	282.788896	0.1	0.000124588	282.788896
9.39949	2.255E-10	282.813389	0.0999999	0.00012411	282.813389
9.19948	1.84E-10	282.83793	0.1000001	0.000123629	282.83793
8.99949	9.65E-11	282.862443	0.1000001	0.000123147	282.862443
8.79958	1.793E-10	282.918757	0.1000001	0.000122657	282.918757
8.59955	1.407E-10	282.943271	0.0999999	0.000122161	282.943271
8.39955	1.27E-10	282.967794	0.1	0.000121665	282.967794
8.19955	1.035E-10	282.992278	0.1000002	0.000121165	282.992278
7.99956	8.77E-11	283.016863	0.0999999	0.00012066	283.016863
7.79958	8.29E-11	283.041383	0.0999998	0.000120154	283.041383
7.59957	8.31E-11	283.065916	0.1	0.000119648	283.065916
7.39958	5.48E-11	283.090431	0.0999999	0.000119136	283.090431
7.19955	4.09E-11	283.114964	0.1	0.000118623	283.114964
6.99954	5.26E-11	283.139525	0.1	0.000118108	283.139525
6.79959	3.04E-11	283.16406	0.1	0.00011759	283.16406
6.59956	1.21E-11	283.188568	0.1000001	0.000117069	283.188568
6.39957	2.46E-11	283.213112	0.0999998	0.000116547	283.213112
6.19957	7.2E-12	283.237684	0.0999999	0.000116021	283.237684
5.99954	-8E-13	283.262205	0.1000001	0.000115492	283.262205
5.79955	-9.9E-12	283.28671	0.0999997	0.000114958	283.28671
5.59957	-1.22E-11	283.311239	0.1	0.000114427	283.311239
5.39956	-1.85E-11	283.335783	0.0999999	0.000113891	283.335783
5.19956	-3.64E-11	283.360308	0.1000001	0.000113351	283.360308
4.99959	2.42E-11	283.408502	0.1000002	0.00011281	283.408502
4.79957	-2.93E-11	283.433078	0.0999999	0.000112265	283.433078
4.59956	-3.36E-11	283.457684	0.0999999	0.000111719	283.457684
4.39955	-3.47E-11	283.482272	0.1000002	0.000111168	283.482272
4.19954	-3.93E-11	283.508461	0.0999999	0.000110619	283.508461
3.99957	-5.68E-11	283.532996	0.1000001	0.000110066	283.532996
3.79954	-6.05E-11	283.55753	0.1	0.000109514	283.55753
3.59957	-7.05E-11	283.582046	0.0999999	0.000108959	283.582046
3.39954	-7.27E-11	283.60658	0.1	0.000108407	283.60658
3.19956	-8.97E-11	283.631105	0.1000002	0.000107852	283.631105
2.99956	-8.45E-11	283.655622	0.0999999	0.0001073	283.655622
2.79958	-9.14E-11	283.680142	0.1000003	0.000106745	283.680142
2.59958	-1.13E-10	283.704654	0.1	0.000106189	283.704654
2.39957	-9.45E-11	283.729257	0.1	0.000105636	283.729257
2.19957	-1.036E-10	283.753784	0.0999999	0.000105084	283.753784
1.99957	-1.204E-10	283.778295	0.0999998	0.000104534	283.778295
1.79955	-1.233E-10	283.802873	0.1000001	0.000103983	283.802873
1.59959	-1.167E-10	283.827431	0.1	0.000103433	283.827431
1.39957	-1.316E-10	283.851943	0.1	0.000102888	283.851943
1.19956	-1.315E-10	283.87646	0.1	0.00010234	283.87646
0.99957	-3.57E-11	283.926318	0.1000002	0.000101802	283.926318
0.79952	-1.297E-10	283.950857	0.1	0.000101258	283.950857
0.59952	-1.434E-10	283.975374	0.1	0.000100718	283.975374
0.39954	-1.262E-10	283.9999	0.1	0.000100177	283.9999
0.19951	-1.462E-10	284.024468	0.1	9.964E-05	284.024468
-0.00051	-1.632E-10	284.049	0.0999995	9.9105E-05	284.049
-0.20049	-1.612E-10	284.073502	0.1000001	9.8575E-05	284.073502
-0.40049	-1.474E-10	284.098043	0.0999998	9.805E-05	284.098043
-0.60047	-1.709E-10	284.122658	0.0999998	9.7532E-05	284.122658
-0.80049	-1.799E-10	284.147228	0.0999999	9.7025E-05	284.147228
-1.00048	-1.73E-10	284.171746	0.0999999	9.6527E-05	284.171746
-1.20048	-1.73E-10	284.196264	0.0999998	9.6039E-05	284.196264
-1.40049	-1.925E-10	284.220783	0.1000001	9.5559E-05	284.220783
-1.60048	-1.984E-10	284.245351	0.1000001	9.5085E-05	284.245351
-1.80049	-1.829E-10	284.269867	0.0999998	9.4615E-05	284.269867
-2.00049	-1.993E-10	284.294392	0.0999999	9.4145E-05	284.294392
-2.20051	-2.119E-10	284.318924	0.1	9.3675E-05	284.318924
-2.40049	-1.955E-10	284.343458	0.0999999	9.3205E-05	284.343458
-2.60048	-2.134E-10	284.368001	0.0999997	9.2735E-05	284.368001
-2.80048	-1.72E-10	284.428085	0.1000001	9.2266E-05	284.428085
-3.00049	-1.869E-10	284.452613	0.1	9.1793E-05	284.452613
-3.20048	-1.987E-10	284.47718	0.1000001	9.1318E-05	284.47718
-3.40051	-2.235E-10	284.501711	0.1	9.0843E-05	284.501711
-3.60048	-2.166E-10	284.526313	0.0999999	9.0368E-05	284.526313
-3.80046	-2.117E-10	284.550838	0.1	8.9891E-05	284.550838
-4.00049	-2.293E-10	284.575364	0.1	8.9412E-05	284.575364
-4.2005	-2.364E-10	284.599889	0.1	8.8933E-05	284.599889
-4.40049	-2.314E-10	284.624428	0.1	8.8452E-05	284.624428
-4.60047	-2.348E-10	284.648954	0.1000001	8.7971E-05	284.648954
-4.80046	-2.118E-10	284.676804	0.1000047	8.74104E-05	284.676804
-5.0005	-2.492E-10	284.70132	0.1000045	8.69263E-05	284.70132
-5.20048	-1.526E-10	284.726019	0.1000053	8.64418E-05	284.726019
-5.4005	-2.336E-10	284.750574	0.100005	8.59533E-05	284.750574
-5.60049	-2.452E-10	284.775084	0.1000051	8.54636E-05	284.775084
-5.80049	-2.506E-10	284.799669	0.1000042	8.49719E-05	284.799669
-6.00049	-2.556E-10	284.824219	0.1000049	8.44794E-05	284.824219
-6.20048	-2.572E-10	284.848769	0.1000064	8.39863E-05	284.848769
-6.40049	-2.597E-10	284.873285	0.1000059	8.34893E-05	284.873285
-6.60047	-2.032E-10	284.932467	0.1000054	8.29932E-05	284.932467
-6.80046	-2.335E-10	284.957026	0.100005	8.24927E-05	284.957026
-7.00048	-2.604E-10	284.981562	0.1000049	8.199E-05	284.981562
-7.20049	-2.803E-10	285.006099	0.100005	8.14867E-05	285.006099
-7.40049	-3.136E-10	285.030649	0.1000052	8.09806E-05	285.030649
-7.60049	-2.826E-10	285.055173	0.1000049	8.04724E-05	285.055173
-7.80049	-2.925E-10	285.079679	0.1000048	7.99629E-05	285.079679
-8.00046	-2.888E-10	285.104297	0.1000051	7.94512E-05	285.104297
-8.20049	-2.806E-10	285.128797	0.1000046	7.8937E-05	285.128797
-8.40047	-2.996E-10	285.153376	0.1000052	7.8421E-05	285.153376
-8.60049	-3.089E-10	285.177907	0.1000059	7.79036E-05	285.177907
-8.80047	-2.82E-10	285.202417	0.1000049	7.73827E-05	285.202417
-9.00048	-3.059E-10	285.226958	0.1000056	7.68602E-05	285.226958
-9.20048	-3.105E-10	285.25152	0.1000046	7.63363E-05	285.25152
-9.40047	-3.04E-10	285.276039	0.1000053	7.58091E-05	285.276039
-9.60048	-3.071E-10	285.300551	0.1000048	7.52817E-05	285.300551
-9.80049	-3.152E-10	285.325111	0.1000052	7.47541E-05	285.325111
-10.00048	-3.15E-10	285.349623	0.1000055	7.42233E-05	285.349623
-10.20046	-3.161E-10	285.374164	0.100005	7.36917E-05	285.374164
-10.40048	-2.821E-10	285.43131	0.1000051	7.31638E-05	285.43131
-10.6005	-2.82E-10	285.455833	0.1000053	7.26254E-05	285.455833
-10.80048	-3.129E-10	285.480421	0.1000047	7.20862E-05	285.480421
-11.0005	-3.27E-10	285.504933	0.1000056	7.15439E-05	285.504933
-11.20049	-3.104E-10	285.529503	0.1000061	7.09992E-05	285.529503
-11.40049	-3.193E-10	285.554015	0.100006	7.04522E-05	285.554015
-11.60047	-3.354E-10	285.57854	0.1000048	6.99012E-05	285.57854
-11.80048	-3.272E-10	285.603042	0.1000047	6.9349E-05	285.603042
-12.00048	-3.251E-10	285.627658	0.1000058	6.8795E-05	285.627658
#scan	iMeasureCycle=3	iMux=0	time=319.889	N=222	LocalTime=22/06/2023 09:08:11
#VGate(V)	IGate(A)	time(s)	VDrain(V)	IDrain(A)	time(s)
-12.00047	-6.97E-11	319.896511	0.1000047	6.88331E-05	319.896511
-11.8005	-2.31E-11	319.92137	0.1000057	6.93903E-05	319.92137
-11.60049	-1.15E-11	319.946999	0.1000069	6.99455E-05	319.946999
-11.40049	4.24E-11	319.971542	0.100006	7.04979E-05	319.971542
-11.20049	3.25E-11	319.996069	0.1000051	7.1047E-05	319.996069
-11.00048	4.35E-11	320.020607	0.1000051	7.15944E-05	320.020607
-10.80048	8.82E-11	320.045124	0.1000056	7.21389E-05	320.045124
-10.60048	7.69E-11	320.069656	0.1000055	7.26812E-05	320.069656
-10.4005	7E-11	320.094164	0.1000057	7.32213E-05	320.094164
-10.2005	9.42E-11	320.118783	0.1000061	7.37606E-05	320.118783
-10.00049	1.046E-10	320.143289	0.1000049	7.42972E-05	320.143289
-9.80049	1.11E-10	320.167819	0.1000059	7.48305E-05	320.167819
-9.6005	1.014E-10	320.192329	0.1000057	7.53621E-05	320.192329
-9.40048	1.237E-10	320.21694	0.1000055	7.58936E-05	320.21694
-9.20049	1.344E-10	320.241457	0.1000051	7.64211E-05	320.241457
-9.0005	1.345E-10	320.266032	0.1000047	7.6942E-05	320.266032
-8.8005	1.269E-10	320.290539	0.1000049	7.7463E-05	320.290539
-8.60049	1.428E-10	320.315152	0.1000055	7.79814E-05	320.315152
-8.40049	1.388E-10	320.339668	0.100006	7.84954E-05	320.339668
-8.20049	2.529E-10	320.364184	0.1000059	7.90084E-05	320.364184
-8.0005	2.008E-10	320.388744	0.1000053	7.95206E-05	320.388744
-7.8005	1.671E-10	320.41326	0.1000061	8.00291E-05	320.41326
-7.60051	1.373E-10	320.459604	0.1000047	8.05336E-05	320.459604
-7.4005	1.599E-10	320.484153	0.100005	8.10395E-05	320.484153
-7.20048	1.643E-10	320.508665	0.1000056	8.15458E-05	320.508665
-7.00049	1.759E-10	320.533252	0.1000049	8.20472E-05	320.533252
-6.80048	1.84E-10	320.557839	0.1000046	8.25489E-05	320.557839
-6.60048	1.831E-10	320.582389	0.1000051	8.30477E-05	320.582389
-6.40046	1.939E-10	320.606909	0.100006	8.35465E-05	320.606909
-6.20048	1.967E-10	320.631436	0.1000058	8.40432E-05	320.631436
-6.0005	1.941E-10	320.655962	0.1000056	8.45367E-05	320.655962
-5.8005	1.996E-10	320.680494	0.100005	8.50288E-05	320.680494
-5.60048	2.319E-10	320.705008	0.1000055	8.552E-05	320.705008
-5.40051	2.115E-10	320.729513	0.1000046	8.60095E-05	320.729513
-5.20049	1.969E-10	320.75403	0.1000058	8.64979E-05	320.75403
-5.00051	2.236E-10	320.778549	0.1000045	8.69841E-05	320.778549
-4.80046	2.293E-10	320.80306	0.1000048	8.74682E-05	320.80306
-4.60048	2.265E-10	320.827637	0.1000047	8.79503E-05	320.827637
-4.40049	2.168E-10	320.85215	0.1000039	8.84324E-05	320.85215
-4.2005	2.309E-10	320.876721	0.1000047	8.89138E-05	320.876721
-4.0005	2.41E-10	320.901262	0.1000051	8.93935E-05	320.901262
-3.80048	1.205E-10	320.961315	0.100005	8.98688E-05	320.961315
-3.60048	2.167E-10	320.985844	0.1000042	9.03463E-05	320.985844
-3.4005	2.154E-10	321.010379	0.1000042	9.08222E-05	321.010379
-3.2005	2.236E-10	321.034913	0.1000041	9.12968E-05	321.034913
-3.00049	2.333E-10	321.059488	0.1000043	9.17727E-05	321.059488
-2.80049	2.489E-10	321.084009	0.1000042	9.22455E-05	321.084009
-2.60048	2.479E-10	321.108536	0.1000034	9.27186E-05	321.108536
-2.4005	2.384E-10	321.133046	0.1000038	9.31901E-05	321.133046
-2.20049	2.688E-10	321.157582	0.1000046	9.36602E-05	321.157582
-2.00051	2.639E-10	321.182105	0.1000049	9.41325E-05	321.182105
-1.80051	2.468E-10	321.206702	0.1000041	9.46033E-05	321.206702
-1.60049	2.695E-10	321.231283	0.1000044	9.50777E-05	321.231283
-1.4005	2.651E-10	321.255809	0.1000039	9.5554E-05	321.255809
-1.20052	2.647E-10	321.280333	0.1000042	9.60402E-05	321.280333
-1.00051	2.775E-10	321.304874	0.1000041	9.65335E-05	321.304874
-0.80052	2.879E-10	321.329483	0.100004	9.70354E-05	321.329483
-0.6005	2.808E-10	321.354018	0.1000044	9.75489E-05	321.354018
-0.40051	2.822E-10	321.378541	0.1000041	9.80693E-05	321.378541
-0.20051	2.911E-10	321.403063	0.1000046	9.85963E-05	321.403063
-0.0005	2.408E-10	321.462768	0.1000044	9.91228E-05	321.462768
0.19949	2.734E-10	321.487295	0.1000039	9.96575E-05	321.487295
0.39951	2.806E-10	321.511819	0.1000036	0.0001001954	321.511819
0.59951	2.8E-10	321.536572	0.1000043	0.0001007342	321.536572
0.79948	3.013E-10	321.561244	0.1000044	0.0001012747	321.561244
0.99949	2.944E-10	321.58577	0.1000039	0.000101814	321.58577
1.19949	3.099E-10	321.610307	0.1000035	0.0001023581	321.610307
1.39949	3.077E-10	321.634823	0.100004	0.0001029028	321.634823
1.59949	3.063E-10	321.659357	0.1000036	0.0001034466	321.659357
1.79951	3.134E-10	321.683875	0.1000038	0.000103995	321.683875
1.99949	3.344E-10	321.708411	0.1000035	0.0001045435	321.708411
2.19949	2.923E-10	321.737996	0.1	0.000105171	321.737996
2.3995	3.365E-10	321.762514	0.0999998	0.00010572	321.762514
2.5995	5.816E-10	321.787034	0.1	0.000106271	321.787034
2.79949	3.309E-10	321.811639	0.1	0.000106826	321.811639
2.9995	3.425E-10	321.836168	0.1	0.000107378	321.836168
3.19948	3.459E-10	321.860682	0.1	0.000107929	321.860682
3.39949	3.506E-10	321.885336	0.0999999	0.000108482	321.885336
3.59949	3.433E-10	321.909858	0.0999998	0.000109033	321.909858
3.79949	2.914E-10	321.967163	0.0999999	0.000109579	321.967163
3.9995	3.213E-10	321.991711	0.1	0.00011013	321.991711
4.1995	3.353E-10	322.016228	0.1	0.00011068	322.016228
4.39951	3.416E-10	322.040757	0.0999998	0.000111227	322.040757
4.59952	3.428E-10	322.065314	0.1000001	0.000111773	322.065314
4.79948	3.586E-10	322.089856	0.0999999	0.000112315	322.089856
4.9995	3.461E-10	322.11433	0.0999998	0.000112857	322.11433
5.19951	3.508E-10	322.138874	0.1000002	0.000113395	322.138874
5.3995	3.762E-10	322.163395	0.0999999	0.000113932	322.163395
5.59951	3.629E-10	322.187937	0.1000001	0.000114465	322.187937
5.79949	2.467E-10	322.212507	0.0999998	0.000114994	322.212507
5.9995	3.48E-10	322.237019	0.1000001	0.000115521	322.237019
6.19949	3.758E-10	322.261538	0.1	0.000116044	322.261538
6.39952	3.728E-10	322.286106	0.1000001	0.000116566	322.286106
6.5995	3.556E-10	322.310662	0.0999999	0.000117085	322.310662
6.79949	3.63E-10	322.335177	0.0999999	0.000117598	322.335177
6.99947	3.892E-10	322.3597	0.0999998	0.000118112	322.3597
7.19949	3.813E-10	322.384238	0.0999999	0.000118622	322.384238
7.39951	3.679E-10	322.408773	0.1000001	0.000119128	322.408773
7.59949	3.255E-10	322.466043	0.0999999	0.000119628	322.466043
7.7995	3.548E-10	322.490565	0.1	0.000120129	322.490565
7.99949	3.818E-10	322.515093	0.0999999	0.000120629	322.515093
8.19949	3.732E-10	322.539832	0.0999998	0.000121125	322.539832
8.3995	3.866E-10	322.564406	0.1	0.000121616	322.564406
8.59948	3.828E-10	322.588927	0.1	0.000122106	322.588927
8.7995	3.954E-10	322.613454	0.1	0.000122595	322.613454
8.99949	3.95E-10	322.637967	0.1	0.000123076	322.637967
9.19949	3.871E-10	322.662485	0.1000002	0.000123555	322.662485
9.3995	4.133E-10	322.687012	0.0999997	0.000124043	322.687012
9.59948	3.995E-10	322.711539	0.0999999	0.000124523	322.711539
9.7995	3.928E-10	322.736052	0.0999999	0.000125	322.736052
9.9995	4.173E-10	322.760567	0.1	0.000125475	322.760567
9.99946	3.621E-10	322.783904	0.0999999	0.000125477	322.783904
9.79951	2.641E-10	322.808438	0.1	0.000125001	322.808438
9.59951	2.325E-10	322.833032	0.1	0.000124527	322.833032
9.3995	2.039E-10	322.857549	0.0999998	0.000124048	322.857549
9.1995	1.833E-10	322.882157	0.0999999	0.000123567	322.882157
8.99951	1.502E-10	322.906674	0.0999998	0.000123084	322.906674
8.79949	1.951E-10	322.967734	0.0999998	0.000122596	322.967734
8.59951	1.295E-10	322.992325	0.1000001	0.000122099	322.992325
8.39951	1.029E-10	323.016848	0.1000001	0.000121603	323.016848
8.1995	1.056E-10	323.041357	0.1	0.000121102	323.041357
7.99948	9.54E-11	323.065927	0.1000001	0.0001206	323.065927
7.79953	7.56E-11	323.090453	0.0999998	0.000120094	323.090453
7.59949	5E-11	323.114975	0.0999997	0.000119583	323.114975
7.39952	5.91E-11	323.139485	0.0999999	0.000119073	323.139485
7.19952	5.44E-11	323.163994	0.1	0.000118561	323.163994
6.9995	1.593E-10	323.188496	0.1000002	0.000118043	323.188496
6.79951	4.44E-11	323.213062	0.1	0.000117526	323.213062
6.59952	3.2E-11	323.237582	0.1000001	0.000117006	323.237582
6.39949	1.81E-11	323.262104	0.1	0.000116483	323.262104
6.19951	8.1E-12	323.286723	0.0999998	0.000115958	323.286723
5.9995	1.02E-11	323.311309	0.0999999	0.000115429	323.311309
5.7995	-1.63E-11	323.33585	0.1000001	0.000114896	323.33585
5.59951	-1.51E-11	323.360374	0.1000001	0.000114362	323.360374
5.39951	-1.58E-11	323.384897	0.1	0.000113823	323.384897
5.19952	-2.44E-11	323.40942	0.1000001	0.000113283	323.40942
4.99951	9.9E-12	323.469432	0.1	0.000112744	323.469432
4.79949	-3.37E-11	323.493971	0.1	0.000112201	323.493971
4.59952	-2.85E-11	323.518499	0.1	0.000111652	323.518499
4.39951	-4E-11	323.543012	0.1	0.000111104	323.543012
4.19949	-2.509E-10	323.567584	0.1000001	0.000110551	323.567584
3.99951	-6.95E-11	323.592125	0.1	0.000109999	323.592125
3.79948	-6.85E-11	323.616642	0.0999999	0.000109447	323.616642
3.59952	-8.38E-11	323.641169	0.1000001	0.000108892	323.641169
3.39951	-8.53E-11	323.665677	0.0999999	0.000108339	323.665677
3.19951	-7.93E-11	323.690219	0.1	0.000107784	323.690219
2.99951	-9.44E-11	323.714748	0.0999998	0.000107229	323.714748
2.7995	-1.088E-10	323.739274	0.1000001	0.000106672	323.739274
2.59951	-8.5E-11	323.763788	0.0999999	0.000106119	323.763788
2.39951	-1.102E-10	323.788415	0.1	0.000105564	323.788415
2.1995	-1.235E-10	323.813024	0.1	0.000105012	323.813024
1.9995	-1.114E-10	323.837564	0.1000001	0.000104462	323.837564
1.79952	-1.142E-10	323.86208	0.0999999	0.000103911	323.86208
1.59952	-1.239E-10	323.886926	0.0999998	0.000103363	323.886926
1.39952	-1.4E-10	323.911475	0.0999999	0.000102814	323.911475
1.1995	-7.24E-11	323.970907	0.1	0.000102273	323.970907
0.99954	-1.289E-10	323.995448	0.1000001	0.000101728	323.995448
0.79951	-1.332E-10	324.019972	0.1000001	0.000101185	324.019972
0.59951	-1.238E-10	324.044496	0.0999999	0.000100644	324.044496
0.39953	-1.46E-10	324.069065	0.1	0.000100107	324.069065
0.19951	-1.522E-10	324.0936	0.1000001	9.957E-05	324.0936
-0.00048	-1.558E-10	324.118075	0.1000002	9.9036E-05	324.118075
-0.20049	-1.518E-10	324.142603	0.0999998	9.8503E-05	324.142603
-0.40051	-1.641E-10	324.167118	0.0999999	9.7979E-05	324.167118
-0.60049	-1.786E-10	324.191639	0.1	9.7462E-05	324.191639
-0.80049	-1.568E-10	324.216214	0.1000001	9.6953E-05	324.216214
-1.0005	-1.742E-10	324.240754	0.1000002	9.6455E-05	324.240754
-1.20049	-1.952E-10	324.265257	0.0999998	9.5969E-05	324.265257
-1.40048	-1.81E-10	324.289791	0.1000001	9.5489E-05	324.289791
-1.60047	-1.827E-10	324.314396	0.1	9.5014E-05	324.314396
-1.80048	-1.998E-10	324.338952	0.1	9.4543E-05	324.338952
-2.00048	-2.03E-10	324.363464	0.0999999	9.4074E-05	324.363464
-2.2005	-1.975E-10	324.387988	0.1000001	9.3606E-05	324.387988
-2.40051	-2.065E-10	324.4126	0.1	9.3135E-05	324.4126
-2.60047	-1.671E-10	324.472465	0.1	9.2665E-05	324.472465
-2.8005	-1.861E-10	324.497024	0.0999999	9.2194E-05	324.497024
-3.00048	-2.056E-10	324.521583	0.0999999	9.172E-05	324.521583
-3.20049	-2.031E-10	324.546137	0.1	9.1248E-05	324.546137
-3.4005	-2.138E-10	324.570711	0.1	9.0772E-05	324.570711
-3.60048	-1.46E-10	324.595276	0.1	9.0297E-05	324.595276
-3.80048	-1.859E-10	324.619798	0.1	8.9821E-05	324.619798
-4.00049	-2.177E-10	324.644333	0.0999998	8.9341E-05	324.644333
-4.20047	-2.184E-10	324.668854	0.1000003	8.8863E-05	324.668854
-4.40049	-2.055E-10	324.69672	0.1000054	8.83029E-05	324.69672
-4.60047	-2.32E-10	324.721266	0.1000057	8.78211E-05	324.721266
-4.80048	-2.316E-10	324.745779	0.100004	8.73372E-05	324.745779
-5.0005	-2.414E-10	324.770303	0.1000047	8.68532E-05	324.770303
-5.20048	-2.472E-10	324.794817	0.1000043	8.63668E-05	324.794817
-5.40048	-2.437E-10	324.819401	0.1000057	8.58792E-05	324.819401
-5.60047	-2.546E-10	324.843914	0.1000053	8.53885E-05	324.843914
-5.80046	-2.517E-10	324.868443	0.1000058	8.48986E-05	324.868443
-6.00046	-2.522E-10	324.892998	0.1000048	8.4406E-05	324.892998
-6.2005	-2.733E-10	324.917528	0.1000046	8.39082E-05	324.917528
-6.40048	-2.256E-10	324.977018	0.1000052	8.34153E-05	324.977018
-6.60049	-2.533E-10	325.001631	0.1000046	8.29156E-05	325.001631
-6.80047	-2.717E-10	325.026182	0.1000045	8.24172E-05	325.026182
-7.00047	-2.779E-10	325.050724	0.100005	8.19147E-05	325.050724
-7.20051	-2.639E-10	325.075274	0.100005	8.14103E-05	325.075274
-7.40048	-2.808E-10	325.099817	0.1000048	8.09047E-05	325.099817
-7.60048	-2.893E-10	325.124342	0.1000052	8.03967E-05	325.124342
-7.80046	-2.767E-10	325.14887	0.100005	7.9887E-05	325.14887
-8.00045	-2.911E-10	325.173395	0.1000053	7.93744E-05	325.173395
-8.20049	-3.036E-10	325.198011	0.100006	7.88612E-05	325.198011
-8.4005	-2.907E-10	325.222571	0.1000054	7.83452E-05	325.222571
-8.60047	-2.919E-10	325.247117	0.1000055	7.78253E-05	325.247117
-8.80048	-2.91E-10	325.271646	0.1000043	7.73044E-05	325.271646
-9.00048	-3.184E-10	325.296161	0.100005	7.67829E-05	325.296161
-9.20048	-2.971E-10	325.320728	0.1000059	7.62592E-05	325.320728
-9.40049	-3.012E-10	325.345252	0.100005	7.57307E-05	325.345252
-9.60049	-3.224E-10	325.36978	0.1000047	7.5203E-05	325.36978
-9.80046	-3.268E-10	325.394302	0.1000057	7.46763E-05	325.394302
-10.00048	-2.98E-10	325.418838	0.1000057	7.41461E-05	325.418838
-10.20048	-2.662E-10	325.475691	0.1000049	7.36193E-05	325.475691
-10.40047	-2.955E-10	325.500243	0.1000053	7.30852E-05	325.500243
-10.60048	-3.076E-10	325.524854	0.1000059	7.25474E-05	325.524854
-10.80046	-3.189E-10	325.54936	0.1000054	7.20068E-05	325.54936
-11.00048	-3.169E-10	325.57393	0.1000053	7.14643E-05	325.57393
-11.20049	-3.23E-10	325.59845	0.1000052	7.09189E-05	325.59845
-11.40049	-3.325E-10	325.622983	0.1000055	7.03716E-05	325.622983
-11.60048	-3.361E-10	325.64751	0.1000054	6.9821E-05	325.64751
-11.80048	-3.25E-10	325.67203	0.1000051	6.92688E-05	325.67203
-12.0005	-3.389E-10	325.696538	0.100006	6.8715E-05	325.696538
