#scan	iMeasureCycle=1	iMux=0	time=0.038	N=222	LocalTime=22/06/2023 03:56:50
#VGate(V)	IGate(A)	time(s)	VDrain(V)	IDrain(A)	time(s)
-12.0005	-3.1711E-09	0.063825	0.1000072	5.92742E-05	0.063825
-11.80051	-3.0125E-09	0.088682	0.1000051	5.98641E-05	0.088682
-11.60051	-1.2378E-09	0.113211	0.100006	6.04549E-05	0.113211
-11.40049	-5.199E-10	0.137723	0.100005	6.10405E-05	0.137723
-11.20049	-3.506E-10	0.162298	0.1000058	6.16233E-05	0.162298
-11.0005	-2.032E-10	0.186821	0.1000061	6.22057E-05	0.186821
-10.80047	-1.64E-10	0.211369	0.1000059	6.27857E-05	0.211369
-10.60049	-1.104E-10	0.235913	0.1000055	6.33629E-05	0.235913
-10.4005	-7.2E-11	0.260431	0.1000056	6.39385E-05	0.260431
-10.20047	-5.22E-11	0.284977	0.1000056	6.45116E-05	0.284977
-10.00048	-2.49E-11	0.309499	0.1000054	6.50834E-05	0.309499
-9.8005	-2.4E-12	0.334032	0.1000062	6.56529E-05	0.334032
-9.60051	1.69E-11	0.358556	0.1000065	6.62214E-05	0.358556
-9.4005	2.46E-11	0.383103	0.1000051	6.67867E-05	0.383103
-9.20049	1.5E-11	0.407626	0.100006	6.7351E-05	0.407626
-9.00048	5.26E-11	0.432279	0.1000057	6.79084E-05	0.432279
-8.80049	7.43E-11	0.45685	0.1000061	6.84673E-05	0.45685
-8.6005	5.41E-11	0.481375	0.100006	6.90196E-05	0.481375
-8.4005	7.03E-11	0.505948	0.100006	6.95693E-05	0.505948
-8.2005	1.008E-10	0.530473	0.1000047	7.01186E-05	0.530473
-8.0005	9.34E-11	0.554984	0.1000056	7.06661E-05	0.554984
-7.80049	9.93E-11	0.579497	0.1000059	7.12112E-05	0.579497
-7.60048	4.24E-11	0.627103	0.1000057	7.17509E-05	0.627103
-7.40048	1.004E-10	0.651663	0.100006	7.22955E-05	0.651663
-7.20049	1.334E-10	0.676182	0.1000056	7.28359E-05	0.676182
-7.0005	1.228E-10	0.700924	0.1000056	7.33739E-05	0.700924
-6.8005	1.163E-10	0.725516	0.1000059	7.39118E-05	0.725516
-6.60052	1.378E-10	0.750041	0.1000053	7.44457E-05	0.750041
-6.40051	1.66E-10	0.774565	0.100005	7.49787E-05	0.774565
-6.20048	1.54E-10	0.799075	0.1000062	7.55108E-05	0.799075
-6.0005	1.468E-10	0.823653	0.1000058	7.60406E-05	0.823653
-5.80049	1.762E-10	0.848165	0.1000048	7.65688E-05	0.848165
-5.60053	1.755E-10	0.872693	0.100005	7.70946E-05	0.872693
-5.4005	1.776E-10	0.897213	0.1000044	7.76192E-05	0.897213
-5.20048	2.605E-10	0.921744	0.1000051	7.8143E-05	0.921744
-5.00051	1.945E-10	0.946301	0.1000052	7.8664E-05	0.946301
-4.80048	2.089E-10	0.970846	0.1000058	7.91849E-05	0.970846
-4.60047	2.113E-10	0.995362	0.1000059	7.97035E-05	0.995362
-4.40052	2.153E-10	1.019901	0.1000055	8.02211E-05	1.019901
-4.2005	2.196E-10	1.044418	0.100006	8.07373E-05	1.044418
-4.00049	2.136E-10	1.068935	0.1000047	8.12522E-05	1.068935
-3.80051	1.609E-10	1.128578	0.1000041	8.17612E-05	1.128578
-3.60049	1.941E-10	1.153131	0.1000051	8.22762E-05	1.153131
-3.40049	2.217E-10	1.177645	0.1000041	8.27879E-05	1.177645
-3.2005	2.092E-10	1.202454	0.1000052	8.32999E-05	1.202454
-3.00051	2.184E-10	1.227048	0.1000045	8.38108E-05	1.227048
-2.80049	2.356E-10	1.251557	0.1000057	8.43208E-05	1.251557
-2.6005	2.472E-10	1.276083	0.1000052	8.4829E-05	1.276083
-2.4005	2.516E-10	1.300596	0.1000058	8.53367E-05	1.300596
-2.20049	2.418E-10	1.32512	0.1000046	8.58438E-05	1.32512
-2.0005	2.393E-10	1.349623	0.1000053	8.63505E-05	1.349623
-1.80051	2.659E-10	1.374151	0.1000053	8.68568E-05	1.374151
-1.6005	2.708E-10	1.398671	0.1000042	8.73631E-05	1.398671
-1.40052	2.544E-10	1.423189	0.1000047	8.78727E-05	1.423189
-1.20049	2.594E-10	1.447748	0.1000045	8.83881E-05	1.447748
-1.0005	2.884E-10	1.472283	0.1000043	8.89119E-05	1.472283
-0.80051	2.882E-10	1.496844	0.1000042	8.94453E-05	1.496844
-0.60051	2.752E-10	1.52139	0.1000039	8.99914E-05	1.52139
-0.40049	2.769E-10	1.54591	0.1000045	9.05467E-05	1.54591
-0.20048	3.122E-10	1.570437	0.100005	9.11102E-05	1.570437
-0.00052	2.362E-10	1.630752	0.1000041	9.16734E-05	1.630752
0.19949	2.892E-10	1.655272	0.1000046	9.22504E-05	1.655272
0.39952	2.899E-10	1.679791	0.1000052	9.28294E-05	1.679791
0.59951	2.991E-10	1.70431	0.1000041	9.34095E-05	1.70431
0.79949	2.912E-10	1.728888	0.1000034	9.39925E-05	1.728888
0.9995	3.167E-10	1.753412	0.100004	9.45766E-05	1.753412
1.19947	3.302E-10	1.777933	0.100004	9.51656E-05	1.777933
1.39951	3.057E-10	1.802462	0.1000044	9.57541E-05	1.802462
1.59951	3.036E-10	1.82703	0.1000042	9.63441E-05	1.82703
1.79949	3.391E-10	1.851566	0.1000033	9.69364E-05	1.851566
1.99951	3.374E-10	1.87608	0.1000042	9.75313E-05	1.87608
2.19951	3.314E-10	1.900618	0.1000047	9.81272E-05	1.900618
2.3995	3.441E-10	1.925129	0.1000042	9.87229E-05	1.925129
2.59951	3.377E-10	1.949714	0.1000036	9.93214E-05	1.949714
2.7995	3.523E-10	1.97423	0.1000038	9.99205E-05	1.97423
2.99951	3.583E-10	1.998756	0.1000039	0.0001005175	1.998756
3.1995	3.571E-10	2.023269	0.1000036	0.0001011166	2.023269
3.3995	3.503E-10	2.04779	0.1000035	0.0001017155	2.04779
3.5995	3.614E-10	2.072297	0.1000038	0.0001023141	2.072297
3.79949	3.158E-10	2.13231	0.1000037	0.0001029043	2.13231
3.9995	3.495E-10	2.156857	0.100003	0.000103501	2.156857
4.1995	3.479E-10	2.181371	0.1000028	0.0001040954	2.181371
4.39948	3.533E-10	2.205885	0.1000035	0.000104688	2.205885
4.59948	3.424E-10	2.235503	0.1000001	0.000105356	2.235503
4.79947	3.722E-10	2.260038	0.0999998	0.000105943	2.260038
4.99948	3.646E-10	2.284545	0.1000001	0.000106527	2.284545
5.1995	3.673E-10	2.309082	0.1	0.000107109	2.309082
5.39948	4.213E-10	2.333594	0.1000003	0.000107687	2.333594
5.5995	4.11E-10	2.358117	0.1000002	0.000108262	2.358117
5.79951	3.875E-10	2.382622	0.1000001	0.000108834	2.382622
5.99951	3.678E-10	2.407142	0.1000001	0.000109402	2.407142
6.19948	4.144E-10	2.431653	0.1	0.000109968	2.431653
6.39947	4.153E-10	2.456224	0.1000001	0.000110529	2.456224
6.5995	3.749E-10	2.480735	0.1	0.000111089	2.480735
6.79949	3.435E-10	2.505389	0.1000001	0.000111644	2.505389
6.99949	4.038E-10	2.529902	0.0999999	0.000112195	2.529902
7.19949	4.019E-10	2.554425	0.1	0.000112744	2.554425
7.39949	4.157E-10	2.578924	0.1	0.000113288	2.578924
7.59949	3.647E-10	2.636683	0.1000001	0.000113825	2.636683
7.7995	3.805E-10	2.661216	0.1	0.000114365	2.661216
7.99949	3.932E-10	2.685732	0.1	0.000114902	2.685732
8.19947	4.201E-10	2.710268	0.0999999	0.000115436	2.710268
8.3995	4.142E-10	2.734823	0.1	0.000115966	2.734823
8.59951	4.236E-10	2.759334	0.0999998	0.000116489	2.759334
8.7995	4.277E-10	2.783835	0.1000001	0.000117014	2.783835
8.99949	4.084E-10	2.808431	0.1	0.000117533	2.808431
9.19948	4.259E-10	2.833007	0.1000003	0.00011805	2.833007
9.39947	4.488E-10	2.857549	0.1000001	0.000118566	2.857549
9.59947	4.303E-10	2.882051	0.1	0.000119079	2.882051
9.79951	4.173E-10	2.906586	0.1000001	0.000119593	2.906586
9.99948	4.407E-10	2.931097	0.0999996	0.000120102	2.931097
9.99947	3.817E-10	2.954502	0.1000001	0.000120103	2.954502
9.7995	2.992E-10	2.979021	0.1000001	0.000119593	2.979021
9.59951	2.434E-10	3.003518	0.1	0.000119083	3.003518
9.3995	2.362E-10	3.028049	0.1	0.000118572	3.028049
9.1995	1.983E-10	3.052554	0.0999998	0.000118053	3.052554
8.99951	1.737E-10	3.077062	0.1000001	0.000117534	3.077062
8.79952	2.054E-10	3.13527	0.0999999	0.000117007	3.13527
8.59948	1.468E-10	3.159797	0.1000001	0.000116474	3.159797
8.3995	1.241E-10	3.184308	0.1	0.00011594	3.184308
8.1995	1.148E-10	3.208857	0.0999999	0.0001154	3.208857
7.99948	1.015E-10	3.233419	0.0999999	0.000114858	3.233419
7.79952	8.4E-11	3.257946	0.0999998	0.000114313	3.257946
7.5995	7.71E-11	3.282452	0.0999998	0.000113766	3.282452
7.3995	5.87E-11	3.306972	0.0999998	0.000113216	3.306972
7.1995	4.89E-11	3.331492	0.1000001	0.000112663	3.331492
6.99949	6.29E-11	3.35603	0.1000001	0.000112108	3.35603
6.7995	4.23E-11	3.380536	0.0999998	0.00011155	3.380536
6.5995	1.45E-11	3.405072	0.1000001	0.000110989	3.405072
6.3995	1.53E-11	3.429603	0.1	0.000110422	3.429603
6.19951	2.16E-11	3.454179	0.1	0.000109855	3.454179
5.99951	2.3E-12	3.478684	0.1000001	0.000109283	3.478684
5.7995	-1.54E-11	3.503276	0.1000001	0.000108705	3.503276
5.59952	-2.02E-11	3.527758	0.1	0.00010813	3.527758
5.39948	-1.39E-11	3.552285	0.0999998	0.00010755	3.552285
5.19951	-2.2E-11	3.576793	0.0999999	0.000106963	3.576793
4.99951	3.46E-11	3.637069	0.1	0.000106379	3.637069
4.79953	-1.77E-11	3.661698	0.1	0.000105788	3.661698
4.59949	-5.47E-11	3.686213	0.0999999	0.000105196	3.686213
4.39949	-5.12E-11	3.710743	0.0999999	0.0001046	3.710743
4.1995	7.92E-11	3.735311	0.0999999	0.000104001	3.735311
3.99948	-3.91E-11	3.759825	0.0999997	0.000103403	3.759825
3.79949	-6.44E-11	3.784328	0.1	0.000102802	3.784328
3.5995	-7.98E-11	3.808845	0.1000001	0.000102201	3.808845
3.39951	-5.66E-11	3.833525	0.0999999	0.000101597	3.833525
3.1995	-6.3E-11	3.858044	0.0999998	0.000100997	3.858044
2.99951	-9.79E-11	3.882565	0.1000001	0.000100395	3.882565
2.79951	-2.852E-10	3.907079	0.1	9.9793E-05	3.907079
2.5995	-1.105E-10	3.93162	0.1000001	9.9192E-05	3.93162
2.39949	-1.093E-10	3.95619	0.0999999	9.8591E-05	3.95619
2.19951	-1.212E-10	3.980731	0.0999996	9.7989E-05	3.980731
1.99951	-1.266E-10	4.005241	0.1000002	9.7391E-05	4.005241
1.79952	-1.323E-10	4.02977	0.1000001	9.6795E-05	4.02977
1.59953	-1.378E-10	4.054309	0.1000001	9.62E-05	4.054309
1.39949	-1.16E-10	4.078845	0.0999999	9.5606E-05	4.078845
1.19951	-8.78E-11	4.134227	0.1	9.502E-05	4.134227
0.99949	-9.99E-11	4.158751	0.1	9.4431E-05	4.158751
0.79952	-1.437E-10	4.18332	0.0999997	9.3844E-05	4.18332
0.59951	-1.681E-10	4.207824	0.0999999	9.3255E-05	4.207824
0.39952	-1.349E-10	4.232399	0.1000001	9.2675E-05	4.232399
0.19949	-1.367E-10	4.256939	0.1000002	9.2094E-05	4.256939
-0.00051	-1.775E-10	4.281449	0.0999999	9.1518E-05	4.281449
-0.20051	-1.742E-10	4.305981	0.1000003	9.0949E-05	4.305981
-0.40049	-1.732E-10	4.330493	0.1	9.0388E-05	4.330493
-0.60047	-1.713E-10	4.355044	0.1000001	8.9837E-05	4.355044
-0.8005	-1.813E-10	4.37955	0.1000002	8.9297E-05	4.37955
-1.0005	-1.856E-10	4.404081	0.1	8.877E-05	4.404081
-1.2005	-2.03E-10	4.4286	0.0999998	8.8252E-05	4.4286
-1.4005	-1.956E-10	4.453199	0.1	8.7742E-05	4.453199
-1.60049	-1.896E-10	4.481041	0.1000047	8.71527E-05	4.481041
-1.80048	-2.081E-10	4.505619	0.1000048	8.66479E-05	4.505619
-2.00051	-2.072E-10	4.530165	0.1000042	8.61416E-05	4.530165
-2.2005	-2.086E-10	4.554691	0.1000045	8.56368E-05	4.554691
-2.4005	-2.069E-10	4.579229	0.1000045	8.51303E-05	4.579229
-2.60049	-1.748E-10	4.643158	0.1000046	8.46252E-05	4.643158
-2.80051	-2.096E-10	4.667705	0.1000043	8.41149E-05	4.667705
-3.00049	-1.988E-10	4.692214	0.1000044	8.3607E-05	4.692214
-3.2005	-2.069E-10	4.716761	0.100005	8.3096E-05	4.716761
-3.40051	-2.324E-10	4.74134	0.1000049	8.25863E-05	4.74134
-3.60046	-2.148E-10	4.765853	0.1000052	8.20738E-05	4.765853
-3.8005	-2.373E-10	4.790369	0.100005	8.15602E-05	4.790369
-4.00049	-2.416E-10	4.814892	0.1000045	8.10462E-05	4.814892
-4.20048	-2.139E-10	4.839467	0.1000049	8.05296E-05	4.839467
-4.40048	-2.482E-10	4.864002	0.1000045	8.00139E-05	4.864002
-4.6005	-2.614E-10	4.888533	0.1000046	7.94954E-05	4.888533
-4.80047	-2.487E-10	4.913037	0.1000053	7.8976E-05	4.913037
-5.00049	-2.309E-10	4.937584	0.1000045	7.84551E-05	4.937584
-5.20051	-2.598E-10	4.962155	0.1000044	7.79319E-05	4.962155
-5.4005	-2.852E-10	4.98669	0.1000047	7.74075E-05	4.98669
-5.60049	-2.663E-10	5.011206	0.1000049	7.6881E-05	5.011206
-5.80048	-2.657E-10	5.035741	0.1000052	7.63535E-05	5.035741
-6.00048	-2.821E-10	5.060287	0.1000052	7.58242E-05	5.060287
-6.20048	-2.773E-10	5.084824	0.1000052	7.52914E-05	5.084824
-6.40049	-9.13E-11	5.141697	0.1000049	7.47604E-05	5.141697
-6.60049	-2.467E-10	5.166236	0.1000058	7.42258E-05	5.166236
-6.80048	-2.522E-10	5.190755	0.1000041	7.36881E-05	5.190755
-7.00049	-2.562E-10	5.215275	0.1000053	7.31488E-05	5.215275
-7.20047	-2.724E-10	5.239843	0.1000064	7.2608E-05	5.239843
-7.40045	-2.872E-10	5.264359	0.1000061	7.20651E-05	5.264359
-7.60048	-2.981E-10	5.28887	0.1000057	7.15204E-05	5.28887
-7.80047	-3.405E-10	5.313374	0.1000052	7.09719E-05	5.313374
-8.00048	-2.799E-10	5.337896	0.1000053	7.04234E-05	5.337896
-8.20048	-3.013E-10	5.362416	0.1000063	6.98732E-05	5.362416
-8.40048	-3.295E-10	5.386928	0.1000059	6.93205E-05	5.386928
-8.60048	-3.211E-10	5.411456	0.1000064	6.87652E-05	5.411456
-8.80046	-3.016E-10	5.43596	0.1000054	6.82087E-05	5.43596
-9.00047	-3.183E-10	5.460568	0.1000057	6.76496E-05	5.460568
-9.20047	-3.289E-10	5.485094	0.1000058	6.70882E-05	5.485094
-9.40047	-3.361E-10	5.509661	0.1000065	6.65253E-05	5.509661
-9.60048	-3.125E-10	5.534281	0.1000062	6.59614E-05	5.534281
-9.80048	-3.134E-10	5.558795	0.1000061	6.53983E-05	5.558795
-10.00047	-3.383E-10	5.583321	0.1000059	6.48312E-05	5.583321
-10.20048	-2.686E-10	5.643542	0.1000061	6.42704E-05	5.643542
-10.4005	-3.384E-10	5.668063	0.1000052	6.36992E-05	5.668063
-10.60049	-3.216E-10	5.692595	0.1000051	6.31262E-05	5.692595
-10.80047	-3.094E-10	5.717122	0.1000067	6.25521E-05	5.717122
-11.00046	-3.353E-10	5.741689	0.1000062	6.19745E-05	5.741689
-11.2005	-3.507E-10	5.766196	0.1000059	6.13958E-05	5.766196
-11.40048	-3.473E-10	5.790744	0.1000059	6.08151E-05	5.790744
-11.60048	-3.202E-10	5.815256	0.1000058	6.02306E-05	5.815256
-11.80049	-3.41E-10	5.839845	0.1000045	5.96456E-05	5.839845
-12.00047	-3.712E-10	5.864365	0.1000055	5.90593E-05	5.864365
#scan	iMeasureCycle=2	iMux=0	time=279.652	N=222	LocalTime=22/06/2023 04:01:29
#VGate(V)	IGate(A)	time(s)	VDrain(V)	IDrain(A)	time(s)
-12.00048	-8.22E-11	279.6595	0.100006	5.91416E-05	279.6595
-11.8005	-1.13E-11	279.684398	0.100008	5.97319E-05	279.684398
-11.60049	-5.72E-11	279.710012	0.1000057	6.03188E-05	279.710012
-11.40049	2.68E-11	279.734544	0.1000054	6.09041E-05	279.734544
-11.20047	3.5E-11	279.759066	0.1000071	6.14887E-05	279.759066
-11.00049	2.73E-11	279.783588	0.1000059	6.20703E-05	279.783588
-10.8005	6.53E-11	279.808114	0.1000059	6.26486E-05	279.808114
-10.60051	9.76E-11	279.832695	0.1000055	6.32261E-05	279.832695
-10.40049	6.99E-11	279.857275	0.1000053	6.38012E-05	279.857275
-10.20048	7.43E-11	279.881847	0.1000068	6.43763E-05	279.881847
-10.00047	9.92E-11	279.906375	0.1000063	6.49469E-05	279.906375
-9.8005	1.139E-10	279.93088	0.1000059	6.55186E-05	279.93088
-9.60048	1.124E-10	279.955437	0.1000045	6.60854E-05	279.955437
-9.4005	1.078E-10	279.980033	0.1000063	6.66522E-05	279.980033
-9.20052	1.338E-10	280.004564	0.1000061	6.72164E-05	280.004564
-9.0005	1.338E-10	280.029074	0.1000048	6.77744E-05	280.029074
-8.80047	1.395E-10	280.05361	0.1000054	6.83328E-05	280.05361
-8.6005	1.484E-10	280.07812	0.1000065	6.88869E-05	280.07812
-8.40051	1.346E-10	280.102671	0.1000054	6.9438E-05	280.102671
-8.20049	1.441E-10	280.127187	0.1000056	6.99879E-05	280.127187
-8.00046	1.724E-10	280.151734	0.1000049	7.05359E-05	280.151734
-7.80047	1.686E-10	280.176245	0.1000055	7.10819E-05	280.176245
-7.60051	1.225E-10	280.219154	0.1000062	7.16255E-05	280.219154
-7.4005	1.381E-10	280.243693	0.100005	7.21688E-05	280.243693
-7.20049	1.725E-10	280.268222	0.1000053	7.27098E-05	280.268222
-7.0005	1.857E-10	280.292764	0.1000056	7.32502E-05	280.292764
-6.80049	1.627E-10	280.317329	0.1000057	7.37882E-05	280.317329
-6.6005	1.61E-10	280.342073	0.1000064	7.43245E-05	280.342073
-6.4005	1.969E-10	280.366614	0.1000051	7.48567E-05	280.366614
-6.20049	1.987E-10	280.391141	0.1000051	7.53905E-05	280.391141
-6.00051	1.899E-10	280.415646	0.1000059	7.59213E-05	280.415646
-5.80051	2.069E-10	280.440169	0.1000045	7.64493E-05	280.440169
-5.60047	1.96E-10	280.464685	0.1000057	7.69777E-05	280.464685
-5.40048	2.048E-10	280.489195	0.1000049	7.75028E-05	280.489195
-5.20046	2.147E-10	280.513716	0.1000055	7.80278E-05	280.513716
-5.0005	2.251E-10	280.538241	0.1000059	7.85493E-05	280.538241
-4.8005	2.001E-10	280.562802	0.1000054	7.90712E-05	280.562802
-4.60049	2.123E-10	280.587325	0.1000048	7.95904E-05	280.587325
-4.4005	2.48E-10	280.611844	0.1000045	8.0107E-05	280.611844
-4.2005	2.261E-10	280.636363	0.1000054	8.06237E-05	280.636363
-4.00051	2.164E-10	280.660869	0.1000044	8.11398E-05	280.660869
-3.80048	1.869E-10	280.709464	0.1000045	8.16504E-05	280.709464
-3.6005	2.945E-10	280.734048	0.1000047	8.21655E-05	280.734048
-3.4005	2.662E-10	280.758629	0.1000048	8.26781E-05	280.758629
-3.20049	2.383E-10	280.783138	0.1000046	8.31889E-05	280.783138
-3.00052	2.497E-10	280.809492	0.1000043	8.36999E-05	280.809492
-2.80048	2.603E-10	280.834014	0.1000051	8.42086E-05	280.834014
-2.6005	2.438E-10	280.858643	0.1000047	8.47182E-05	280.858643
-2.40049	2.571E-10	280.88315	0.1000048	8.52258E-05	280.88315
-2.20048	2.693E-10	280.907725	0.1000054	8.5735E-05	280.907725
-2.00049	2.828E-10	280.93222	0.1000053	8.62431E-05	280.93222
-1.80051	2.716E-10	280.956743	0.1000048	8.67483E-05	280.956743
-1.60049	2.632E-10	280.981261	0.1000051	8.7257E-05	280.981261
-1.40049	2.816E-10	281.005771	0.100006	8.77679E-05	281.005771
-1.2005	2.808E-10	281.030278	0.1000047	8.82826E-05	281.030278
-1.00051	2.921E-10	281.054792	0.1000054	8.88061E-05	281.054792
-0.80051	2.911E-10	281.079315	0.1000048	8.93402E-05	281.079315
-0.60049	5.71E-11	281.103863	0.1000042	8.98845E-05	281.103863
-0.40051	2.791E-10	281.1284	0.1000038	9.04393E-05	281.1284
-0.20052	3.199E-10	281.152932	0.1000051	9.10054E-05	281.152932
-0.00048	2.813E-10	281.177469	0.1000039	9.15742E-05	281.177469
0.19952	2.598E-10	281.226558	0.1000053	9.21476E-05	281.226558
0.39952	2.865E-10	281.251177	0.1000039	9.27277E-05	281.251177
0.59951	2.932E-10	281.275724	0.100005	9.33117E-05	281.275724
0.7995	2.981E-10	281.300248	0.1000045	9.38933E-05	281.300248
0.99946	2.968E-10	281.324835	0.1000028	9.44795E-05	281.324835
1.19949	3.197E-10	281.349416	0.1000043	9.50685E-05	281.349416
1.39951	3.273E-10	281.373954	0.100004	9.56572E-05	281.373954
1.5995	3.337E-10	281.398471	0.1000044	9.62498E-05	281.398471
1.79948	3.101E-10	281.422999	0.1000039	9.68423E-05	281.422999
1.99951	3.175E-10	281.447506	0.1000033	9.74365E-05	281.447506
2.19952	3.669E-10	281.472051	0.1000037	9.80332E-05	281.472051
2.39951	3.431E-10	281.496555	0.1000038	9.86318E-05	281.496555
2.59949	3.242E-10	281.521089	0.1000043	9.92299E-05	281.521089
2.79949	3.411E-10	281.545602	0.1000038	9.98287E-05	281.545602
2.99951	3.633E-10	281.570195	0.1000034	0.0001004281	281.570195
3.19948	3.558E-10	281.594759	0.100003	0.000101028	281.594759
3.39948	3.443E-10	281.619278	0.1000045	0.0001016281	281.619278
3.59949	3.398E-10	281.643788	0.1000042	0.0001022257	281.643788
3.79947	3.641E-10	281.668309	0.1000034	0.0001028249	281.668309
3.99949	3.033E-10	281.728072	0.1000038	0.0001034167	281.728072
4.19947	3.597E-10	281.752602	0.1000039	0.000104013	281.752602
4.39951	3.479E-10	281.777124	0.1000033	0.0001046062	281.777124
4.59949	3.389E-10	281.806717	0.1000001	0.000105274	281.806717
4.79949	3.658E-10	281.831291	0.1	0.000105865	281.831291
4.99949	3.6E-10	281.855811	0.0999999	0.00010645	281.855811
5.19949	3.702E-10	281.880342	0.0999999	0.000107035	281.880342
5.39947	3.665E-10	281.904905	0.1	0.000107614	281.904905
5.5995	3.858E-10	281.929433	0.1000001	0.00010819	281.929433
5.7995	3.877E-10	281.953939	0.0999999	0.000108764	281.953939
5.99949	3.883E-10	281.978551	0.0999999	0.000109334	281.978551
6.19949	3.807E-10	282.003067	0.1	0.000109898	282.003067
6.39949	3.873E-10	282.027609	0.1000001	0.000110462	282.027609
6.59951	3.958E-10	282.052114	0.0999999	0.000111023	282.052114
6.7995	4.179E-10	282.076653	0.1000002	0.000111578	282.076653
6.99947	3.891E-10	282.101198	0.1	0.000112131	282.101198
7.19951	3.886E-10	282.125738	0.1000001	0.00011268	282.125738
7.39951	5.277E-10	282.150248	0.1	0.000113225	282.150248
7.59949	4.325E-10	282.174784	0.0999999	0.000113767	282.174784
7.79947	3.772E-10	282.232564	0.1000002	0.000114303	282.232564
7.99949	3.955E-10	282.25714	0.0999999	0.000114842	282.25714
8.19948	3.888E-10	282.281651	0.1000001	0.000115375	282.281651
8.39949	3.967E-10	282.306176	0.1000001	0.000115905	282.306176
8.59949	4.312E-10	282.330748	0.1	0.000116433	282.330748
8.79949	4.183E-10	282.355323	0.1000001	0.000116957	282.355323
8.99948	4.113E-10	282.37986	0.0999998	0.000117478	282.37986
9.19951	4.149E-10	282.404369	0.1000001	0.000117995	282.404369
9.39949	4.298E-10	282.428899	0.1	0.000118515	282.428899
9.59951	4.433E-10	282.453418	0.0999998	0.00011903	282.453418
9.79948	4.325E-10	282.477957	0.0999999	0.000119544	282.477957
9.99949	4.223E-10	282.502483	0.0999999	0.000120052	282.502483
9.99948	1.312E-10	282.525828	0.1000001	0.000120053	282.525828
9.79952	2.751E-10	282.550342	0.1000001	0.000119543	282.550342
9.59949	2.557E-10	282.574928	0.0999998	0.000119032	282.574928
9.39951	2.122E-10	282.599713	0.1000001	0.00011852	282.599713
9.19948	1.589E-10	282.624254	0.1	0.000118001	282.624254
8.99951	1.728E-10	282.648759	0.1000001	0.000117482	282.648759
8.79951	1.768E-10	282.673304	0.1000001	0.000116959	282.673304
8.59951	1.77E-10	282.731403	0.1	0.000116421	282.731403
8.39952	1.451E-10	282.755917	0.0999998	0.000115888	282.755917
8.19949	1.095E-10	282.780461	0.0999999	0.000115349	282.780461
7.99951	8.22E-11	282.804987	0.0999999	0.000114806	282.804987
7.79951	1.015E-10	282.82958	0.1000001	0.00011426	282.82958
7.59951	9.2E-11	282.854158	0.0999999	0.000113711	282.854158
7.39951	5.34E-11	282.878681	0.0999999	0.00011316	282.878681
7.19951	1.26E-11	282.903237	0.0999998	0.000112607	282.903237
6.9995	6.32E-11	282.927752	0.1000004	0.000112052	282.927752
6.7995	4.28E-11	282.952269	0.1000001	0.000111493	282.952269
6.59948	1.38E-11	282.976788	0.0999999	0.000110931	282.976788
6.39951	2.11E-11	283.0013	0.0999999	0.000110364	283.0013
6.1995	-4E-12	283.025826	0.1000001	0.000109799	283.025826
5.99949	-1E-12	283.050338	0.1	0.000109225	283.050338
5.79951	6.4E-12	283.074859	0.1	0.000108652	283.074859
5.59951	-1.01E-11	283.099387	0.1000001	0.000108074	283.099387
5.3995	-3.29E-11	283.123904	0.0999999	0.000107492	283.123904
5.19948	-3.33E-11	283.148421	0.1	0.000106907	283.148421
4.9995	-5.7E-12	283.173001	0.1	0.000106319	283.173001
4.79949	3.58E-11	283.233145	0.1	0.000105729	283.233145
4.5995	-3.65E-11	283.25772	0.0999999	0.000105137	283.25772
4.39951	-3.75E-11	283.282239	0.1000001	0.000104543	283.282239
4.1995	-4.46E-11	283.306774	0.0999999	0.000103944	283.306774
3.99948	-5.16E-11	283.331338	0.0999999	0.000103344	283.331338
3.7995	-6.11E-11	283.355928	0.1000002	0.000102743	283.355928
3.59948	-6.87E-11	283.380443	0.1000001	0.000102142	283.380443
3.39953	-8.42E-11	283.404973	0.1000001	0.00010154	283.404973
3.1995	-8.06E-11	283.429494	0.0999999	0.000100937	283.429494
2.99951	-6.79E-11	283.454011	0.0999999	0.000100335	283.454011
2.79951	-9.58E-11	283.47854	0.1000001	9.9732E-05	283.47854
2.5995	-1.285E-10	283.503071	0.1	9.9129E-05	283.503071
2.3995	-1.044E-10	283.527593	0.1000002	9.8529E-05	283.527593
2.19951	-6.9E-11	283.552124	0.0999999	9.7928E-05	283.552124
1.99952	-5.93E-11	283.576771	0.1000001	9.733E-05	283.576771
1.79951	-1.184E-10	283.601298	0.1000001	9.6734E-05	283.601298
1.59952	-1.111E-10	283.625823	0.1000001	9.6138E-05	283.625823
1.39949	-1.156E-10	283.65035	0.0999999	9.5546E-05	283.65035
1.19949	-1.18E-10	283.674879	0.1	9.4954E-05	283.674879
0.99951	-7.85E-11	283.730383	0.1000001	9.4368E-05	283.730383
0.79948	-1.077E-10	283.75491	0.1000001	9.378E-05	283.75491
0.59952	-1.351E-10	283.779542	0.0999998	9.3196E-05	283.779542
0.39952	-1.452E-10	283.804062	0.0999999	9.2611E-05	283.804062
0.19951	-1.474E-10	283.828632	0.0999998	9.2033E-05	283.828632
-0.00049	-1.296E-10	283.853319	0.0999998	9.1457E-05	283.853319
-0.20049	-1.515E-10	283.877816	0.1000001	9.0888E-05	283.877816
-0.40048	-1.778E-10	283.90236	0.1000001	9.0329E-05	283.90236
-0.60047	-2.846E-10	283.926916	0.0999998	8.9778E-05	283.926916
-0.80049	-1.497E-10	283.954769	0.100004	8.91585E-05	283.954769
-1.00048	-1.959E-10	283.979396	0.1000048	8.86332E-05	283.979396
-1.20049	-2.013E-10	284.003916	0.1000041	8.81151E-05	284.003916
-1.4005	-1.948E-10	284.028446	0.1000045	8.76052E-05	284.028446
-1.6005	-1.951E-10	284.052957	0.1000047	8.70987E-05	284.052957
-1.8005	-1.892E-10	284.07752	0.1000044	8.65934E-05	284.07752
-2.00048	-2.144E-10	284.102115	0.1000045	8.60876E-05	284.102115
-2.2005	-2.211E-10	284.126645	0.1000044	8.55807E-05	284.126645
-2.40051	-2.114E-10	284.151158	0.1000047	8.50758E-05	284.151158
-2.60049	-2.047E-10	284.175693	0.1000048	8.45677E-05	284.175693
-2.8005	-1.68E-10	284.239042	0.1000042	8.40615E-05	284.239042
-3.00049	-2.075E-10	284.263556	0.1000042	8.35513E-05	284.263556
-3.2005	-2.164E-10	284.28812	0.1000051	8.30418E-05	284.28812
-3.40051	-2.001E-10	284.312643	0.1000051	8.25305E-05	284.312643
-3.60048	-2.188E-10	284.337216	0.100005	8.20188E-05	284.337216
-3.80047	-2.474E-10	284.361785	0.1000035	8.15059E-05	284.361785
-4.00049	-2.322E-10	284.386368	0.1000036	8.09919E-05	284.386368
-4.20049	-2.272E-10	284.410897	0.1000046	8.04771E-05	284.410897
-4.40049	-2.397E-10	284.435396	0.1000047	7.996E-05	284.435396
-4.60047	-2.549E-10	284.459943	0.1000048	7.94415E-05	284.459943
-4.80049	-2.562E-10	284.484413	0.1000045	7.89223E-05	284.484413
-5.00049	-2.594E-10	284.50895	0.1000046	7.84021E-05	284.50895
-5.2005	-2.483E-10	284.533468	0.100005	7.78793E-05	284.533468
-5.40051	-2.608E-10	284.557979	0.1000044	7.73539E-05	284.557979
-5.60049	-2.651E-10	284.58254	0.1000049	7.68284E-05	284.58254
-5.80049	-2.768E-10	284.607092	0.100006	7.63009E-05	284.607092
-6.0005	-2.741E-10	284.631604	0.1000051	7.57718E-05	284.631604
-6.2005	-2.538E-10	284.656141	0.1000043	7.52399E-05	284.656141
-6.40049	-2.866E-10	284.680649	0.100005	7.47063E-05	284.680649
-6.6005	-2.17E-10	284.738091	0.1000059	7.41756E-05	284.738091
-6.80046	-2.733E-10	284.762604	0.1000054	7.36377E-05	284.762604
-7.00051	-2.726E-10	284.787144	0.1000052	7.30976E-05	284.787144
-7.20047	-2.735E-10	284.811663	0.1000054	7.25577E-05	284.811663
-7.40048	-2.769E-10	284.836235	0.1000057	7.20151E-05	284.836235
-7.60049	-2.871E-10	284.86082	0.1000054	7.14693E-05	284.86082
-7.80049	-3.138E-10	284.885333	0.1000053	7.0923E-05	284.885333
-8.00049	-2.841E-10	284.909902	0.1000046	7.03733E-05	284.909902
-8.20046	-2.787E-10	284.934432	0.100006	6.98249E-05	284.934432
-8.40048	-3.179E-10	284.958947	0.1000067	6.92715E-05	284.958947
-8.60048	-1.803E-10	284.983472	0.1000058	6.87163E-05	284.983472
-8.80045	-2.945E-10	285.007989	0.1000065	6.81596E-05	285.007989
-9.0005	-3.106E-10	285.032516	0.1000048	6.75987E-05	285.032516
-9.20051	-3.113E-10	285.057039	0.1000055	6.70393E-05	285.057039
-9.40047	-3.147E-10	285.081574	0.1000056	6.64762E-05	285.081574
-9.60049	-3.319E-10	285.106094	0.1000068	6.59133E-05	285.106094
-9.80048	-3.205E-10	285.130624	0.1000068	6.53492E-05	285.130624
-10.00048	-3.036E-10	285.155139	0.1000066	6.47833E-05	285.155139
-10.20048	-3.321E-10	285.179749	0.1000061	6.42157E-05	285.179749
-10.40049	-2.883E-10	285.239904	0.1000058	6.36521E-05	285.239904
-10.60048	-3.258E-10	285.264472	0.1000062	6.30794E-05	285.264472
-10.80049	-3.194E-10	285.288998	0.1000054	6.25041E-05	285.288998
-11.00049	-3.121E-10	285.31351	0.1000063	6.19272E-05	285.31351
-11.20047	-4.251E-10	285.338176	0.1000064	6.13484E-05	285.338176
-11.40048	-3.81E-10	285.362755	0.1000059	6.07676E-05	285.362755
-11.6005	-3.541E-10	285.387272	0.100006	6.01847E-05	285.387272
-11.80048	-3.63E-10	285.411799	0.1000061	5.95999E-05	285.411799
-12.00049	-3.581E-10	285.436314	0.1000061	5.90125E-05	285.436314
#scan	iMeasureCycle=3	iMux=0	time=319.743	N=222	LocalTime=22/06/2023 04:02:09
#VGate(V)	IGate(A)	time(s)	VDrain(V)	IDrain(A)	time(s)
-12.00048	-8.99E-11	319.750505	0.1000058	5.91175E-05	319.750505
-11.80047	-2.38E-11	319.775374	0.1000074	5.9708E-05	319.775374
-11.60051	-2.7E-11	319.800989	0.1000054	6.0295E-05	319.800989
-11.4005	3.26E-11	319.825506	0.1000045	6.08799E-05	319.825506
-11.20049	4.02E-11	319.850026	0.1000063	6.1464E-05	319.850026
-11.0005	3.67E-11	319.874533	0.1000042	6.20446E-05	319.874533
-10.80048	5.31E-11	319.899042	0.100006	6.26237E-05	319.899042
-10.60049	7.11E-11	319.923702	0.1000068	6.3202E-05	319.923702
-10.40048	7.93E-11	319.94822	0.1000054	6.37772E-05	319.94822
-10.20052	9.5E-11	319.972808	0.1000059	6.43511E-05	319.972808
-10.00047	9.97E-11	319.997326	0.1000055	6.49225E-05	319.997326
-9.80046	9.2E-11	320.021866	0.1000059	6.54932E-05	320.021866
-9.6005	1.089E-10	320.046336	0.1000054	6.60603E-05	320.046336
-9.40048	1.28E-10	320.070857	0.1000053	6.66271E-05	320.070857
-9.2005	1.387E-10	320.095355	0.1000058	6.71908E-05	320.095355
-9.0005	1.225E-10	320.119869	0.1000063	6.7751E-05	320.119869
-8.8005	1.238E-10	320.14439	0.1000053	6.83076E-05	320.14439
-8.6005	1.588E-10	320.168923	0.100005	6.88607E-05	320.168923
-8.40052	1.6E-10	320.193436	0.1000056	6.9413E-05	320.193436
-8.2005	1.343E-10	320.217984	0.100006	6.99632E-05	320.217984
-8.00049	1.425E-10	320.242505	0.1000047	7.05105E-05	320.242505
-7.80047	1.677E-10	320.267022	0.1000052	7.10566E-05	320.267022
-7.60048	1.326E-10	320.313612	0.100007	7.15989E-05	320.313612
-7.40051	1.422E-10	320.338249	0.100006	7.21429E-05	320.338249
-7.20047	1.422E-10	320.362763	0.1000044	7.26834E-05	320.362763
-7.00051	1.728E-10	320.387282	0.1000048	7.32219E-05	320.387282
-6.8005	1.917E-10	320.411939	0.1000047	7.376E-05	320.411939
-6.6005	1.811E-10	320.436491	0.1000055	7.42968E-05	320.436491
-6.40051	1.647E-10	320.461024	0.100005	7.48303E-05	320.461024
-6.2005	2.039E-10	320.485528	0.1000061	7.53649E-05	320.485528
-6.00051	2.024E-10	320.510033	0.1000051	7.58948E-05	320.510033
-5.8005	1.953E-10	320.534539	0.1000045	7.6423E-05	320.534539
-5.60049	2.103E-10	320.559063	0.1000046	7.69492E-05	320.559063
-5.40048	2.032E-10	320.583572	0.1000051	7.74754E-05	320.583572
-5.20049	2.123E-10	320.608085	0.1000042	7.79986E-05	320.608085
-5.0005	2.361E-10	320.632599	0.1000055	7.85219E-05	320.632599
-4.80049	2.222E-10	320.657165	0.1000051	7.90428E-05	320.657165
-4.60047	2.057E-10	320.681708	0.1000052	7.95615E-05	320.681708
-4.40049	2.275E-10	320.70621	0.1000063	8.00805E-05	320.70621
-4.2005	2.405E-10	320.730734	0.1000055	8.05949E-05	320.730734
-4.00049	2.463E-10	320.755244	0.1000042	8.11107E-05	320.755244
-3.80049	1.723E-10	320.815452	0.1000052	8.16216E-05	320.815452
-3.60047	2.145E-10	320.83999	0.1000042	8.2135E-05	320.83999
-3.40051	2.281E-10	320.864538	0.1000045	8.26476E-05	320.864538
-3.20051	2.451E-10	320.889045	0.100005	8.31587E-05	320.889045
-3.0005	2.394E-10	320.913729	0.1000043	8.36695E-05	320.913729
-2.8005	2.496E-10	320.938264	0.1000042	8.41787E-05	320.938264
-2.60048	5.089E-10	320.962802	0.1000052	8.46888E-05	320.962802
-2.40051	2.654E-10	320.987374	0.1000054	8.51965E-05	320.987374
-2.20051	2.869E-10	321.011922	0.1000056	8.57038E-05	321.011922
-2.00051	2.828E-10	321.036459	0.1000037	8.62105E-05	321.036459
-1.80053	2.682E-10	321.060992	0.1000046	8.67152E-05	321.060992
-1.60048	2.77E-10	321.085511	0.1000067	8.72257E-05	321.085511
-1.4005	2.909E-10	321.110029	0.1000051	8.7735E-05	321.110029
-1.20048	1.793E-10	321.134551	0.100005	8.82491E-05	321.134551
-1.0005	2.48E-10	321.159065	0.1000045	8.87722E-05	321.159065
-0.80051	2.684E-10	321.183604	0.100005	8.93056E-05	321.183604
-0.60051	2.896E-10	321.208131	0.1000044	8.98497E-05	321.208131
-0.40052	3.001E-10	321.23266	0.1000054	9.04056E-05	321.23266
-0.20051	2.821E-10	321.257188	0.1000044	9.09698E-05	321.257188
-0.00052	2.44E-10	321.316648	0.100004	9.15353E-05	321.316648
0.19948	2.581E-10	321.341196	0.1000044	9.21127E-05	321.341196
0.39951	2.828E-10	321.365713	0.1000035	9.26931E-05	321.365713
0.59951	3.096E-10	321.390242	0.1000037	9.32741E-05	321.390242
0.79949	3.046E-10	321.414886	0.1000044	9.38599E-05	321.414886
0.9995	2.916E-10	321.43943	0.1000035	9.44452E-05	321.43943
1.1995	2.93E-10	321.463953	0.100004	9.50326E-05	321.463953
1.39951	3.231E-10	321.488465	0.100004	9.56239E-05	321.488465
1.5995	3.28E-10	321.512971	0.1000041	9.62148E-05	321.512971
1.79949	3.166E-10	321.537533	0.1000044	9.68077E-05	321.537533
1.9995	3.238E-10	321.562047	0.1000037	9.74028E-05	321.562047
2.19951	3.299E-10	321.586535	0.1000042	9.8E-05	321.586535
2.3995	3.207E-10	321.611049	0.1000041	9.85986E-05	321.611049
2.59949	3.467E-10	321.635568	0.1000034	9.91961E-05	321.635568
2.7995	3.289E-10	321.660131	0.100004	9.97961E-05	321.660131
2.99948	3.265E-10	321.684681	0.1000037	0.0001003959	321.684681
3.1995	3.38E-10	321.709208	0.1000032	0.0001009955	321.709208
3.39949	3.683E-10	321.733724	0.1000041	0.0001015958	321.733724
3.59949	3.421E-10	321.758276	0.1000035	0.0001021958	321.758276
3.79949	2.844E-10	321.818529	0.1000032	0.000102787	321.818529
3.99948	3.209E-10	321.843064	0.1000032	0.0001033855	321.843064
4.19951	3.392E-10	321.867594	0.100003	0.0001039816	321.867594
4.39949	3.652E-10	321.892106	0.1000034	0.0001045748	321.892106
4.59948	3.125E-10	321.921807	0.0999999	0.000105247	321.921807
4.79948	3.441E-10	321.946336	0.1	0.000105835	321.946336
4.9995	3.628E-10	321.970896	0.1	0.000106424	321.970896
5.19946	3.679E-10	321.995469	0.1	0.000107005	321.995469
5.39949	3.592E-10	322.019973	0.0999999	0.000107584	322.019973
5.5995	3.504E-10	322.044499	0.0999999	0.000108161	322.044499
5.79949	3.809E-10	322.069014	0.0999999	0.000108735	322.069014
5.99947	3.941E-10	322.093535	0.1	0.000109302	322.093535
6.1995	3.613E-10	322.118064	0.1	0.000109871	322.118064
6.39949	3.671E-10	322.142577	0.1	0.000110434	322.142577
6.59952	3.886E-10	322.1671	0.1	0.000110993	322.1671
6.7995	3.854E-10	322.191609	0.1000001	0.000111549	322.191609
6.99948	3.892E-10	322.216128	0.1000001	0.000112102	322.216128
7.1995	3.976E-10	322.240649	0.0999999	0.000112652	322.240649
7.39948	3.795E-10	322.265177	0.0999999	0.000113198	322.265177
7.59951	3.229E-10	322.322681	0.1	0.000113738	322.322681
7.79949	3.825E-10	322.347283	0.0999998	0.000114278	322.347283
7.99949	5.08E-10	322.371809	0.0999999	0.000114817	322.371809
8.1995	4.062E-10	322.396333	0.0999999	0.000115351	322.396333
8.39949	4.07E-10	322.420929	0.0999998	0.000115882	322.420929
8.5995	4.02E-10	322.445458	0.0999998	0.000116408	322.445458
8.79952	4.087E-10	322.469981	0.1000001	0.000116933	322.469981
8.9995	4.435E-10	322.494497	0.1	0.00011745	322.494497
9.1995	4.103E-10	322.518999	0.0999999	0.00011797	322.518999
9.3995	1.333E-10	322.543514	0.1000001	0.00011849	322.543514
9.59948	4.168E-10	322.56803	0.1000001	0.000119004	322.56803
9.7995	4.35E-10	322.592548	0.1000001	0.000119518	322.592548
9.99948	4.185E-10	322.617055	0.0999999	0.000120029	322.617055
9.99948	3.598E-10	322.640422	0.1000001	0.000120028	322.640422
9.79952	2.762E-10	322.665011	0.0999998	0.000119517	322.665011
9.59948	2.434E-10	322.689546	0.1000001	0.000119005	322.689546
9.39951	2.241E-10	322.714061	0.1000001	0.000118493	322.714061
9.19949	1.798E-10	322.73856	0.1	0.000117974	322.73856
8.9995	1.551E-10	322.763064	0.0999999	0.000117455	322.763064
8.79949	1.877E-10	322.817075	0.0999997	0.000116929	322.817075
8.59949	1.253E-10	322.841617	0.1	0.000116396	322.841617
8.3995	1.217E-10	322.866162	0.1000003	0.000115862	322.866162
8.19951	1.128E-10	322.890709	0.1	0.000115324	322.890709
7.9995	8.82E-11	322.915277	0.0999999	0.000114781	322.915277
7.7995	6.65E-11	322.939849	0.0999999	0.000114235	322.939849
7.59951	5.58E-11	322.964371	0.0999998	0.000113687	322.964371
7.3995	5.41E-11	322.988883	0.1	0.000113135	322.988883
7.19949	5.68E-11	323.01345	0.1000001	0.000112581	323.01345
6.99949	4.57E-11	323.037967	0.0999999	0.000112025	323.037967
6.79949	1.43E-11	323.062489	0.0999999	0.000111466	323.062489
6.59953	2.44E-11	323.087012	0.0999999	0.000110904	323.087012
6.3995	1.59E-11	323.11152	0.1000002	0.000110338	323.11152
6.19949	1.3E-11	323.136026	0.0999996	0.000109769	323.136026
5.9995	-2.3E-12	323.160542	0.1	0.000109198	323.160542
5.79948	-2.64E-11	323.185084	0.1	0.000108622	323.185084
5.59951	-6E-13	323.209608	0.1	0.000108044	323.209608
5.39949	-8.9E-12	323.234122	0.0999999	0.000107461	323.234122
5.1995	-4.8E-11	323.258641	0.0999999	0.000106876	323.258641
4.99951	2.22E-11	323.307205	0.0999999	0.000106291	323.307205
4.7995	-2.92E-11	323.331806	0.1	0.000105699	323.331806
4.59951	-3.48E-11	323.356395	0.1	0.000105107	323.356395
4.39949	-3.88E-11	323.380931	0.1000002	0.00010451	323.380931
4.1995	-2.68E-11	323.407107	0.0999998	0.000103915	323.407107
3.99951	-6.05E-11	323.431675	0.1000001	0.000103314	323.431675
3.79947	-7.1E-11	323.456221	0.0999997	0.000102712	323.456221
3.59951	-6.88E-11	323.480744	0.0999999	0.000102111	323.480744
3.39952	-9.2E-11	323.505284	0.1000001	0.000101509	323.505284
3.19949	-9.39E-11	323.529817	0.1	0.000100906	323.529817
2.99951	-7.01E-11	323.554326	0.0999998	0.000100302	323.554326
2.7995	-9.9E-11	323.578849	0.1	9.9699E-05	323.578849
2.59953	-1.284E-10	323.603365	0.1	9.9098E-05	323.603365
2.39948	-1.14E-10	323.627875	0.1000001	9.8498E-05	323.627875
2.1995	-9.68E-11	323.652397	0.1	9.7898E-05	323.652397
1.99951	-1.173E-10	323.676978	0.0999999	9.7299E-05	323.676978
1.79951	-1.375E-10	323.701506	0.1	9.6701E-05	323.701506
1.59951	-1.263E-10	323.726021	0.0999996	9.6104E-05	323.726021
1.39951	-1.158E-10	323.750533	0.0999999	9.551E-05	323.750533
1.1995	-1.17E-11	323.77504	0.1000001	9.4919E-05	323.77504
0.99952	-8.49E-11	323.82483	0.1	9.4333E-05	323.82483
0.79952	-1.162E-10	323.849375	0.1	9.3746E-05	323.849375
0.59949	-1.281E-10	323.87389	0.1	9.3161E-05	323.87389
0.39953	-1.304E-10	323.898424	0.1	9.2577E-05	323.898424
0.19952	-1.599E-10	323.923146	0.0999999	9.1999E-05	323.923146
-0.00051	-2.975E-10	323.947693	0.0999999	9.1425E-05	323.947693
-0.20049	-1.749E-10	323.972283	0.0999999	9.0854E-05	323.972283
-0.40048	-1.648E-10	323.996833	0.1	9.0293E-05	323.996833
-0.60048	-1.784E-10	324.021349	0.1000001	8.9742E-05	324.021349
-0.80048	-1.944E-10	324.045864	0.1000001	8.9205E-05	324.045864
-1.00048	-1.751E-10	324.070389	0.1	8.8679E-05	324.070389
-1.20049	-1.68E-10	324.094909	0.1	8.8161E-05	324.094909
-1.40051	-2.032E-10	324.119429	0.1000001	8.7651E-05	324.119429
-1.60048	-1.787E-10	324.1473	0.1000043	8.70613E-05	324.1473
-1.80051	-1.989E-10	324.172057	0.100005	8.65567E-05	324.172057
-2.00049	-1.982E-10	324.196588	0.1000048	8.60514E-05	324.196588
-2.20049	-2.012E-10	324.221102	0.100004	8.55456E-05	324.221102
-2.40048	-2.258E-10	324.245627	0.1000049	8.50385E-05	324.245627
-2.6005	-2.028E-10	324.270241	0.1000045	8.45312E-05	324.270241
-2.80048	-1.54E-10	324.329501	0.1000047	8.40248E-05	324.329501
-3.0005	-1.862E-10	324.354179	0.1000041	8.35156E-05	324.354179
-3.20049	-2.119E-10	324.378702	0.100005	8.30062E-05	324.378702
-3.40051	-2.197E-10	324.403218	0.1000048	8.24944E-05	324.403218
-3.60048	-2.2E-10	324.427848	0.1000056	8.19826E-05	324.427848
-3.80048	-2.339E-10	324.452368	0.1000045	8.14692E-05	324.452368
-4.00049	-2.191E-10	324.476884	0.100004	8.09548E-05	324.476884
-4.20047	-2.368E-10	324.501398	0.1000055	8.04401E-05	324.501398
-4.40051	-2.634E-10	324.525911	0.1000044	7.99235E-05	324.525911
-4.60048	-2.407E-10	324.550426	0.1000043	7.94046E-05	324.550426
-4.80046	-2.23E-10	324.57496	0.1000049	7.88852E-05	324.57496
-5.0005	-2.601E-10	324.599469	0.1000051	7.83649E-05	324.599469
-5.20047	-2.847E-10	324.624002	0.1000047	7.78415E-05	324.624002
-5.40048	-2.511E-10	324.648516	0.1000051	7.73173E-05	324.648516
-5.60048	-2.404E-10	324.673123	0.1000049	7.6791E-05	324.673123
-5.80048	-2.669E-10	324.69765	0.100005	7.62631E-05	324.69765
-6.00049	-2.716E-10	324.722179	0.1000059	7.57345E-05	324.722179
-6.20052	-2.555E-10	324.746683	0.1000052	7.5202E-05	324.746683
-6.40048	-2.721E-10	324.771203	0.1000047	7.46682E-05	324.771203
-6.60048	-2.123E-10	324.82805	0.1000059	7.41364E-05	324.82805
-6.80048	-2.536E-10	324.852751	0.1000052	7.35988E-05	324.852751
-7.00046	-2.711E-10	324.877396	0.1000056	7.3059E-05	324.877396
-7.20048	-2.679E-10	324.901928	0.1000054	7.25191E-05	324.901928
-7.40047	-2.834E-10	324.926545	0.1000058	7.19756E-05	324.926545
-7.60049	-2.775E-10	324.951064	0.1000044	7.14306E-05	324.951064
-7.80047	-2.741E-10	324.975588	0.1000049	7.08831E-05	324.975588
-8.00047	-2.787E-10	325.000134	0.1000048	7.03346E-05	325.000134
-8.20049	-3.103E-10	325.024693	0.1000056	6.97845E-05	325.024693
-8.40049	-3.055E-10	325.049209	0.1000062	6.92316E-05	325.049209
-8.60047	-2.795E-10	325.073744	0.1000054	6.86766E-05	325.073744
-8.80048	-3.033E-10	325.09826	0.1000052	6.81195E-05	325.09826
-9.00047	-3.312E-10	325.122789	0.1000059	6.75601E-05	325.122789
-9.20049	-3.016E-10	325.147307	0.1000045	6.69981E-05	325.147307
-9.40047	-3.069E-10	325.171827	0.100006	6.64375E-05	325.171827
-9.60048	-2.46E-10	325.196369	0.1000063	6.58738E-05	325.196369
-9.80048	-3.189E-10	325.22088	0.1000057	6.53096E-05	325.22088
-10.00046	-3.229E-10	325.245404	0.1000058	6.47437E-05	325.245404
-10.20049	-3.104E-10	325.26992	0.1000057	6.41753E-05	325.26992
-10.40049	-2.679E-10	325.329638	0.100006	6.3612E-05	325.329638
-10.6005	-3.954E-10	325.354204	0.1000054	6.30387E-05	325.354204
-10.80048	-3.33E-10	325.378714	0.1000066	6.24628E-05	325.378714
-11.00046	-3.407E-10	325.403241	0.1000057	6.18855E-05	325.403241
-11.20049	-3.288E-10	325.427795	0.1000067	6.13061E-05	325.427795
-11.40049	-3.232E-10	325.45232	0.1000056	6.07249E-05	325.45232
-11.60048	-3.391E-10	325.476853	0.100006	6.01411E-05	325.476853
-11.80047	-3.507E-10	325.501388	0.100006	5.95575E-05	325.501388
-12.00047	-3.528E-10	325.525909	0.1000051	5.897E-05	325.525909
