#scan	iMeasureCycle=1	iMux=0	time=0.037	N=222	LocalTime=22/06/2023 04:26:50
#VGate(V)	IGate(A)	time(s)	VDrain(V)	IDrain(A)	time(s)
-12.00041	-3.1487E-09	0.062792	0.1000098	6.03405E-05	0.062792
-11.80047	-3.044E-09	0.087693	0.1000088	6.09277E-05	0.087693
-11.60046	-1.2931E-09	0.112259	0.1000076	6.15118E-05	0.112259
-11.40044	-5.102E-10	0.13678	0.1000082	6.20958E-05	0.13678
-11.20045	-2.169E-10	0.161288	0.1000081	6.2677E-05	0.161288
-11.00046	-2.5E-10	0.185811	0.1000062	6.3253E-05	0.185811
-10.80047	-1.77E-10	0.210326	0.1000056	6.38299E-05	0.210326
-10.60051	-9.98E-11	0.234911	0.1000052	6.44035E-05	0.234911
-10.40047	-6.6E-11	0.259418	0.1000054	6.49751E-05	0.259418
-10.20048	-5.26E-11	0.283932	0.1000061	6.55444E-05	0.283932
-10.00048	-2.83E-11	0.308491	0.1000061	6.61135E-05	0.308491
-9.80047	-1.8E-12	0.333008	0.100005	6.66798E-05	0.333008
-9.60052	1.8E-11	0.357539	0.100005	6.72438E-05	0.357539
-9.40048	3.17E-11	0.382062	0.100005	6.7806E-05	0.382062
-9.20049	4.53E-11	0.406592	0.1000047	6.83667E-05	0.406592
-9.00049	3.6E-11	0.431158	0.1000052	6.89207E-05	0.431158
-8.80046	6.38E-11	0.455693	0.1000061	6.94741E-05	0.455693
-8.60051	6.8E-11	0.480216	0.1000048	7.00228E-05	0.480216
-8.40051	9.43E-11	0.504823	0.1000055	7.05718E-05	0.504823
-8.2005	8.78E-11	0.529333	0.1000049	7.11149E-05	0.529333
-8.00049	8.68E-11	0.553871	0.1000062	7.16598E-05	0.553871
-7.80048	1.225E-10	0.578372	0.1000052	7.21995E-05	0.578372
-7.60048	6.07E-11	0.626799	0.1000058	7.27364E-05	0.626799
-7.40048	9.58E-11	0.651502	0.1000051	7.32751E-05	0.651502
-7.20051	1.265E-10	0.676049	0.1000052	7.38132E-05	0.676049
-7.00049	2.505E-10	0.700552	0.1000055	7.43467E-05	0.700552
-6.80048	9.89E-11	0.725233	0.1000055	7.48799E-05	0.725233
-6.60051	1.393E-10	0.749745	0.1000052	7.54108E-05	0.749745
-6.40049	1.591E-10	0.774329	0.1000053	7.59396E-05	0.774329
-6.20051	1.574E-10	0.798864	0.100006	7.64679E-05	0.798864
-6.00052	1.653E-10	0.823417	0.100005	7.6993E-05	0.823417
-5.8005	1.845E-10	0.847939	0.1000044	7.7517E-05	0.847939
-5.6005	1.616E-10	0.872512	0.1000048	7.80392E-05	0.872512
-5.40051	1.795E-10	0.897024	0.1000049	7.85611E-05	0.897024
-5.20052	2.12E-10	0.92155	0.1000049	7.90802E-05	0.92155
-5.00051	1.879E-10	0.946081	0.1000048	7.95981E-05	0.946081
-4.80049	1.871E-10	0.970605	0.1000045	8.01145E-05	0.970605
-4.60046	2.073E-10	0.995138	0.1000056	8.06295E-05	0.995138
-4.4005	2.171E-10	1.019665	0.1000051	8.11429E-05	1.019665
-4.20051	2.134E-10	1.044206	0.1000048	8.16537E-05	1.044206
-4.00049	2.072E-10	1.068711	0.1000052	8.21675E-05	1.068711
-3.80051	1.628E-10	1.124258	0.1000049	8.26735E-05	1.124258
-3.60047	2.095E-10	1.14879	0.1000045	8.31826E-05	1.14879
-3.40051	2.322E-10	1.173319	0.1000051	8.36911E-05	1.173319
-3.2005	2.251E-10	1.19784	0.1000048	8.41999E-05	1.19784
-3.00048	2.282E-10	1.222404	0.1000049	8.47076E-05	1.222404
-2.80049	2.521E-10	1.246937	0.1000043	8.52118E-05	1.246937
-2.60047	2.273E-10	1.271472	0.1000049	8.57175E-05	1.271472
-2.4005	2.495E-10	1.296011	0.100004	8.62214E-05	1.296011
-2.2005	2.749E-10	1.320547	0.1000037	8.67241E-05	1.320547
-2.0005	2.559E-10	1.345048	0.1000051	8.72273E-05	1.345048
-1.8005	2.543E-10	1.369584	0.1000039	8.77283E-05	1.369584
-1.60051	2.649E-10	1.394076	0.100004	8.82323E-05	1.394076
-1.40049	2.756E-10	1.418694	0.1000045	8.87387E-05	1.418694
-1.20052	2.884E-10	1.443239	0.1000047	8.92511E-05	1.443239
-1.0005	2.602E-10	1.467832	0.1000049	8.97728E-05	1.467832
-0.80051	2.861E-10	1.492345	0.1000047	9.03042E-05	1.492345
-0.6005	2.909E-10	1.51694	0.100004	9.08459E-05	1.51694
-0.4005	3.005E-10	1.541473	0.1000039	9.13974E-05	1.541473
-0.2005	2.903E-10	1.565985	0.1000043	9.19577E-05	1.565985
-0.00049	2.347E-10	1.614164	0.1000039	9.25164E-05	1.614164
0.19948	2.832E-10	1.638739	0.1000045	9.309E-05	1.638739
0.39951	3.047E-10	1.663311	0.1000035	9.36637E-05	1.663311
0.59951	2.902E-10	1.687817	0.1000041	9.42398E-05	1.687817
0.79949	2.922E-10	1.714206	0.1000048	9.48175E-05	1.714206
0.99949	3.013E-10	1.738729	0.1000045	9.53989E-05	1.738729
1.1995	3.333E-10	1.763264	0.1000037	9.59774E-05	1.763264
1.39951	3.116E-10	1.787835	0.1000039	9.65624E-05	1.787835
1.5995	2.969E-10	1.812392	0.1000034	9.71482E-05	1.812392
1.79951	3.318E-10	1.837016	0.1000042	9.77365E-05	1.837016
1.99951	3.531E-10	1.861542	0.1000041	9.8326E-05	1.861542
2.1995	3.232E-10	1.88607	0.1000033	9.89157E-05	1.88607
2.39952	3.215E-10	1.910586	0.100004	9.95088E-05	1.910586
2.5995	3.514E-10	1.935129	0.1000034	0.0001001001	1.935129
2.79949	3.58E-10	1.959655	0.1000033	0.0001006926	1.959655
2.99948	3.429E-10	1.984185	0.1000035	0.0001012873	1.984185
3.19949	3.434E-10	2.008687	0.1000037	0.0001018795	2.008687
3.39951	3.578E-10	2.033221	0.1000045	0.0001024742	2.033221
3.5995	3.574E-10	2.057725	0.1000035	0.0001030657	2.057725
3.79948	3.547E-10	2.082257	0.100003	0.0001036565	2.082257
3.99948	3.128E-10	2.131615	0.1000039	0.0001042436	2.131615
4.19949	3.529E-10	2.161205	0.1000001	0.000104909	2.161205
4.39949	3.572E-10	2.185726	0.0999999	0.000105496	2.185726
4.59949	3.364E-10	2.210239	0.0999999	0.000106081	2.210239
4.79949	3.761E-10	2.234805	0.1	0.000106662	2.234805
4.9995	1.859E-10	2.259324	0.1	0.000107243	2.259324
5.19949	3.477E-10	2.283852	0.0999998	0.000107819	2.283852
5.39948	3.588E-10	2.308384	0.1	0.000108391	2.308384
5.59948	3.87E-10	2.332909	0.0999998	0.000108963	2.332909
5.79949	3.809E-10	2.357419	0.0999999	0.00010953	2.357419
5.99949	3.831E-10	2.381939	0.1000001	0.000110093	2.381939
6.19951	3.806E-10	2.40645	0.0999999	0.000110653	2.40645
6.39948	3.848E-10	2.430987	0.0999999	0.000111211	2.430987
6.59951	3.92E-10	2.455498	0.1000002	0.000111764	2.455498
6.79948	4.016E-10	2.480073	0.1000002	0.000112314	2.480073
6.99947	4.086E-10	2.504612	0.0999998	0.000112863	2.504612
7.1995	3.86E-10	2.529127	0.0999999	0.000113408	2.529127
7.39949	3.916E-10	2.553662	0.0999999	0.000113948	2.553662
7.5995	4.151E-10	2.578179	0.0999998	0.000114487	2.578179
7.7995	3.546E-10	2.635777	0.0999998	0.000115014	2.635777
7.99948	3.965E-10	2.660381	0.0999999	0.000115546	2.660381
8.19954	4.005E-10	2.684911	0.1	0.000116075	2.684911
8.3995	3.907E-10	2.709423	0.0999997	0.000116599	2.709423
8.5995	4.019E-10	2.734003	0.1000002	0.000117121	2.734003
8.79949	4.269E-10	2.758524	0.0999999	0.000117641	2.758524
8.99949	4.156E-10	2.783046	0.1000002	0.000118153	2.783046
9.1995	4.024E-10	2.807622	0.0999999	0.000118666	2.807622
9.3995	4.186E-10	2.832157	0.1000001	0.000119181	2.832157
9.59949	4.351E-10	2.85668	0.1	0.000119692	2.85668
9.7995	4.294E-10	2.881204	0.0999998	0.000120201	2.881204
9.99951	4.2E-10	2.905714	0.0999998	0.000120708	2.905714
9.99949	3.726E-10	2.929043	0.1000001	0.000120707	2.929043
9.7995	2.815E-10	2.953554	0.0999998	0.0001202	2.953554
9.59951	2.417E-10	2.978069	0.1	0.000119692	2.978069
9.39952	2.273E-10	3.002579	0.1	0.000119183	3.002579
9.19951	1.939E-10	3.027081	0.0999999	0.00011867	3.027081
8.99949	1.555E-10	3.051611	0.1	0.000118155	3.051611
8.79952	1.585E-10	3.076107	0.1	0.000117635	3.076107
8.59949	1.73E-10	3.134639	0.1	0.000117101	3.134639
8.39951	1.399E-10	3.159204	0.1	0.000116572	3.159204
8.19951	1.252E-10	3.18374	0.1000001	0.000116036	3.18374
7.99951	9.2E-11	3.208265	0.1	0.000115499	3.208265
7.79949	8.51E-11	3.232829	0.1	0.00011496	3.232829
7.5995	8.55E-11	3.257361	0.0999999	0.000114416	3.257361
7.39949	7.51E-11	3.281934	0.0999996	0.000113872	3.281934
7.19947	5.1E-11	3.306464	0.0999998	0.000113323	3.306464
6.9995	2.24E-11	3.330969	0.1000001	0.000112772	3.330969
6.7995	4.99E-11	3.355495	0.1	0.000112217	3.355495
6.59951	4.03E-11	3.380002	0.1	0.000111662	3.380002
6.3995	5.1E-12	3.404501	0.1000001	0.000111102	3.404501
6.19949	3.6E-12	3.429022	0.1	0.000110538	3.429022
5.9995	6.3E-12	3.45354	0.1	0.000109971	3.45354
5.7995	-1E-11	3.478113	0.0999998	0.000109402	3.478113
5.59953	1.22E-10	3.502647	0.1000002	0.000108828	3.502647
5.39952	1.23E-11	3.527161	0.1	0.000108252	3.527161
5.19951	-2.07E-11	3.55178	0.1000001	0.000107674	3.55178
4.99952	-2.62E-11	3.576284	0.0999998	0.000107093	3.576284
4.79949	3.67E-11	3.636308	0.0999999	0.000106507	3.636308
4.59949	-2.4E-12	3.660868	0.1	0.000105921	3.660868
4.39951	-3.85E-11	3.685377	0.1000001	0.000105329	3.685377
4.19952	-1.668E-10	3.710199	0.1000002	0.000104739	3.710199
3.99951	-5.83E-11	3.734762	0.1	0.000104145	3.734762
3.79949	-5E-11	3.759302	0.1	0.00010355	3.759302
3.5995	-8.5E-11	3.78382	0.1000001	0.000102952	3.78382
3.39951	-8.52E-11	3.808399	0.0999999	0.000102356	3.808399
3.19952	-8.19E-11	3.832927	0.1000002	0.00010176	3.832927
2.99949	-9.95E-11	3.857466	0.1	0.000101162	3.857466
2.79952	-9.62E-11	3.881984	0.0999997	0.000100566	3.881984
2.5995	-9.75E-11	3.906515	0.1000001	9.9969E-05	3.906515
2.39946	-1.25E-10	3.931031	0.1000001	9.9371E-05	3.931031
2.19952	-1.111E-10	3.955553	0.1000001	9.8778E-05	3.955553
1.99951	-9.13E-11	3.980066	0.1	9.8186E-05	3.980066
1.79948	-1.297E-10	4.004584	0.0999998	9.7593E-05	4.004584
1.59952	-1.452E-10	4.029083	0.0999998	9.7004E-05	4.029083
1.39954	-1.291E-10	4.053608	0.0999999	9.6417E-05	4.053608
1.1995	-1.293E-10	4.078129	0.1	9.5831E-05	4.078129
0.99949	-8.92E-11	4.137833	0.0999998	9.5249E-05	4.137833
0.79949	-1.163E-10	4.162482	0.0999999	9.4667E-05	4.162482
0.59952	-1.29E-10	4.18699	0.0999999	9.4086E-05	4.18699
0.39951	-1.59E-10	4.211522	0.1	9.3508E-05	4.211522
0.1995	-1.491E-10	4.236085	0.0999999	9.2933E-05	4.236085
-0.00051	-1.39E-10	4.260626	0.0999999	9.2361E-05	4.260626
-0.20049	-1.56E-10	4.285136	0.0999999	9.1798E-05	4.285136
-0.4005	-1.869E-10	4.30969	0.1000001	9.124E-05	4.30969
-0.60048	-1.715E-10	4.33422	0.1	9.0692E-05	4.33422
-0.80049	-1.564E-10	4.358738	0.0999999	9.0157E-05	4.358738
-1.00051	-1.926E-10	4.383266	0.1000001	8.9632E-05	4.383266
-1.20049	-2.053E-10	4.407804	0.1000001	8.9117E-05	4.407804
-1.40049	-1.821E-10	4.432319	0.1000002	8.861E-05	4.432319
-1.60048	-1.956E-10	4.456872	0.1000001	8.8107E-05	4.456872
-1.80049	-2.017E-10	4.481448	0.1	8.7604E-05	4.481448
-2.0005	-1.994E-10	4.509312	0.1000044	8.7025E-05	4.509312
-2.2005	-2.107E-10	4.533832	0.1000053	8.65231E-05	4.533832
-2.40051	-1.873E-10	4.558353	0.1000048	8.60208E-05	4.558353
-2.60047	-2.221E-10	4.582884	0.1000051	8.55162E-05	4.582884
-2.80047	-1.583E-10	4.642257	0.1000047	8.50148E-05	4.642257
-3.0005	-2.001E-10	4.666826	0.100005	8.45092E-05	4.666826
-3.2005	-2.146E-10	4.691346	0.1000049	8.40028E-05	4.691346
-3.40051	-2.259E-10	4.715861	0.1000046	8.34938E-05	4.715861
-3.60048	-2.037E-10	4.740444	0.1000039	8.29852E-05	4.740444
-3.80047	-2.26E-10	4.764966	0.1000047	8.24784E-05	4.764966
-4.00048	-2.512E-10	4.789479	0.1000052	8.19686E-05	4.789479
-4.20051	-2.368E-10	4.81407	0.1000056	8.1456E-05	4.81407
-4.40051	-2.232E-10	4.838588	0.1000045	8.09429E-05	4.838588
-4.60048	-2.536E-10	4.863138	0.1000054	8.04279E-05	4.863138
-4.80048	-2.54E-10	4.887663	0.1000053	7.9914E-05	4.887663
-5.00047	-1.723E-10	4.91219	0.1000046	7.93968E-05	4.91219
-5.20047	-2.177E-10	4.936701	0.1000057	7.88778E-05	4.936701
-5.40052	-2.519E-10	4.961248	0.1000047	7.83582E-05	4.961248
-5.6005	-2.607E-10	4.985749	0.1000057	7.78357E-05	4.985749
-5.80048	-2.676E-10	5.010291	0.1000054	7.73118E-05	5.010291
-6.00048	-2.612E-10	5.034805	0.100005	7.67853E-05	5.034805
-6.2005	-2.655E-10	5.059318	0.1000046	7.62582E-05	5.059318
-6.40047	-2.636E-10	5.083802	0.1000051	7.57277E-05	5.083802
-6.60049	-2.646E-10	5.136733	0.1000056	7.51979E-05	5.136733
-6.80049	-2.689E-10	5.161292	0.1000043	7.46646E-05	5.161292
-7.00049	-2.887E-10	5.185808	0.1000051	7.41301E-05	5.185808
-7.20049	-2.887E-10	5.210325	0.1000041	7.35926E-05	5.210325
-7.40049	-2.875E-10	5.23489	0.1000065	7.30553E-05	5.23489
-7.60049	-2.939E-10	5.259395	0.1000056	7.25134E-05	5.259395
-7.80046	-2.927E-10	5.283923	0.1000067	7.1971E-05	5.283923
-8.00048	-3.026E-10	5.308459	0.1000056	7.14253E-05	5.308459
-8.20051	-3.096E-10	5.332933	0.1000041	7.08787E-05	5.332933
-8.40049	-2.961E-10	5.357455	0.1000053	7.03303E-05	5.357455
-8.60051	-2.984E-10	5.381985	0.1000052	6.97797E-05	5.381985
-8.80048	-3.197E-10	5.406501	0.1000059	6.92269E-05	5.406501
-9.00047	-3.3E-10	5.431018	0.100006	6.86712E-05	5.431018
-9.2005	-3.113E-10	5.455517	0.1000059	6.81149E-05	5.455517
-9.40048	-3.009E-10	5.480081	0.1000054	6.75547E-05	5.480081
-9.60051	-3.379E-10	5.504593	0.1000056	6.69956E-05	5.504593
-9.80047	-3.44E-10	5.52911	0.1000065	6.64365E-05	5.52911
-10.00047	-3.181E-10	5.553613	0.1000071	6.58732E-05	5.553613
-10.2005	-3.259E-10	5.578188	0.1000052	6.53093E-05	5.578188
-10.40049	-2.657E-10	5.640803	0.1000055	6.47506E-05	5.640803
-10.60047	-3.169E-10	5.665453	0.1000057	6.41811E-05	5.665453
-10.80047	-3.215E-10	5.689995	0.1000063	6.36096E-05	5.689995
-11.00048	-3.267E-10	5.714496	0.1000053	6.30357E-05	5.714496
-11.20048	-3.368E-10	5.739072	0.1000051	6.24596E-05	5.739072
-11.40048	-3.344E-10	5.763533	0.1000064	6.18827E-05	5.763533
-11.60048	-3.566E-10	5.788065	0.1000047	6.13022E-05	5.788065
-11.80047	-3.55E-10	5.812761	0.1000058	6.07204E-05	5.812761
-12.00048	-3.487E-10	5.837302	0.1000063	6.01374E-05	5.837302
#scan	iMeasureCycle=2	iMux=0	time=279.603	N=222	LocalTime=22/06/2023 04:31:29
#VGate(V)	IGate(A)	time(s)	VDrain(V)	IDrain(A)	time(s)
-12.00048	-8.11E-11	279.610568	0.1000068	6.01943E-05	279.610568
-11.80049	-1.517E-10	279.635446	0.100006	6.0781E-05	279.635446
-11.60049	6.6E-12	279.661048	0.100006	6.13643E-05	279.661048
-11.40049	1.87E-11	279.685584	0.1000057	6.19466E-05	279.685584
-11.20049	2.7E-11	279.710134	0.1000053	6.25268E-05	279.710134
-11.0005	4.59E-11	279.734651	0.1000044	6.31052E-05	279.734651
-10.80048	7.9E-11	279.759158	0.1000066	6.36816E-05	279.759158
-10.6005	7.34E-11	279.783685	0.1000065	6.42554E-05	279.783685
-10.4005	6.76E-11	279.80823	0.1000057	6.4828E-05	279.80823
-10.20051	1.006E-10	279.832748	0.1000055	6.53979E-05	279.832748
-10.00047	1.006E-10	279.857251	0.1000064	6.59657E-05	279.857251
-9.80048	1.02E-10	279.881888	0.1000067	6.65334E-05	279.881888
-9.60048	1.105E-10	279.906512	0.1000049	6.70955E-05	279.906512
-9.40049	1.153E-10	279.931023	0.1000058	6.76601E-05	279.931023
-9.20049	1.248E-10	279.955557	0.1000063	6.82203E-05	279.955557
-9.00049	1.342E-10	279.980052	0.1000059	6.87763E-05	279.980052
-8.80049	1.435E-10	280.004661	0.1000054	6.93301E-05	280.004661
-8.60051	1.416E-10	280.029187	0.1000052	6.98787E-05	280.029187
-8.40049	1.456E-10	280.05379	0.1000053	7.04264E-05	280.05379
-8.2005	1.49E-10	280.078304	0.1000056	7.09726E-05	280.078304
-8.0005	1.739E-10	280.102919	0.1000048	7.15174E-05	280.102919
-7.80049	1.55E-10	280.12743	0.1000048	7.20581E-05	280.12743
-7.60049	1.236E-10	280.173282	0.1000059	7.25976E-05	280.173282
-7.4005	1.518E-10	280.197836	0.1000057	7.31377E-05	280.197836
-7.20049	1.684E-10	280.222396	0.1000051	7.36756E-05	280.222396
-7.0005	1.755E-10	280.246934	0.1000052	7.42111E-05	280.246934
-6.80048	1.696E-10	280.271502	0.1000059	7.47451E-05	280.271502
-6.6005	1.843E-10	280.296047	0.1000056	7.52775E-05	280.296047
-6.40049	2.019E-10	280.320553	0.1000048	7.58072E-05	280.320553
-6.2005	1.856E-10	280.345079	0.1000054	7.63352E-05	280.345079
-6.00049	1.844E-10	280.369588	0.1000053	7.68628E-05	280.369588
-5.8005	2.034E-10	280.394123	0.100006	7.73887E-05	280.394123
-5.6005	2.069E-10	280.418657	0.1000055	7.79122E-05	280.418657
-5.40049	2.131E-10	280.443191	0.100005	7.84324E-05	280.443191
-5.20048	2.095E-10	280.467709	0.1000048	7.89536E-05	280.467709
-5.0005	2.311E-10	280.492241	0.1000054	7.94718E-05	280.492241
-4.80049	2.252E-10	280.516751	0.1000052	7.9988E-05	280.516751
-4.60049	3.717E-10	280.541285	0.1000051	8.05041E-05	280.541285
-4.4005	2.645E-10	280.565845	0.1000055	8.10184E-05	280.565845
-4.20048	2.35E-10	280.590433	0.1000054	8.15306E-05	280.590433
-4.0005	2.396E-10	280.61496	0.100005	8.20418E-05	280.61496
-3.80048	1.912E-10	280.674815	0.1000044	8.255E-05	280.674815
-3.60049	2.483E-10	280.699354	0.1000046	8.30595E-05	280.699354
-3.40049	2.295E-10	280.723896	0.1000047	8.35689E-05	280.723896
-3.20051	2.267E-10	280.748423	0.1000055	8.40762E-05	280.748423
-3.00047	2.548E-10	280.772984	0.1000051	8.45816E-05	280.772984
-2.80049	2.535E-10	280.797513	0.1000046	8.50891E-05	280.797513
-2.60049	2.513E-10	280.822036	0.1000053	8.55949E-05	280.822036
-2.4005	2.638E-10	280.846563	0.1000049	8.60968E-05	280.846563
-2.20051	2.557E-10	280.871075	0.1000044	8.66015E-05	280.871075
-2.00049	2.689E-10	280.895662	0.1000045	8.71031E-05	280.895662
-1.80051	2.772E-10	280.920173	0.1000049	8.76066E-05	280.920173
-1.60049	2.763E-10	280.944714	0.1000051	8.81106E-05	280.944714
-1.4005	2.696E-10	280.969218	0.100005	8.86173E-05	280.969218
-1.20051	2.744E-10	280.993752	0.1000053	8.91309E-05	280.993752
-1.00051	2.941E-10	281.018287	0.100005	8.965E-05	281.018287
-0.80051	7.57E-11	281.042807	0.1000041	9.018E-05	281.042807
-0.60048	2.558E-10	281.06738	0.1000042	9.07222E-05	281.06738
-0.4005	2.825E-10	281.091889	0.100005	9.12749E-05	281.091889
-0.20051	2.991E-10	281.116423	0.1000039	9.18344E-05	281.116423
-0.00051	2.361E-10	281.176465	0.1000043	9.23953E-05	281.176465
0.19949	2.63E-10	281.20109	0.1000045	9.29693E-05	281.20109
0.39951	3.034E-10	281.225659	0.1000042	9.35446E-05	281.225659
0.59948	2.781E-10	281.250179	0.1000039	9.41222E-05	281.250179
0.7995	2.872E-10	281.274764	0.1000048	9.47024E-05	281.274764
0.99951	3.216E-10	281.299249	0.1000038	9.52821E-05	281.299249
1.19949	3.118E-10	281.323763	0.1000037	9.5865E-05	281.323763
1.39951	3.03E-10	281.348273	0.1000045	9.64488E-05	281.348273
1.59952	3.147E-10	281.372784	0.1000041	9.70336E-05	281.372784
1.79948	3.333E-10	281.397295	0.1000042	9.76229E-05	281.397295
1.99949	3.355E-10	281.421827	0.1000031	9.82129E-05	281.421827
2.1995	3.145E-10	281.446346	0.1000042	9.88048E-05	281.446346
2.3995	3.335E-10	281.470862	0.1000036	9.93968E-05	281.470862
2.5995	3.455E-10	281.495387	0.1000039	9.99907E-05	281.495387
2.7995	3.403E-10	281.519906	0.1000039	0.0001005836	281.519906
2.99949	3.308E-10	281.544415	0.1000038	0.000101179	281.544415
3.19951	3.536E-10	281.569002	0.1000039	0.0001017737	281.569002
3.39947	3.416E-10	281.59351	0.1000036	0.0001023684	281.59351
3.59949	3.461E-10	281.618037	0.1000036	0.0001029631	281.618037
3.79949	3.065E-10	281.678233	0.1000036	0.0001035486	281.678233
3.99949	3.392E-10	281.702756	0.1000038	0.0001041412	281.702756
4.19948	2.867E-10	281.749738	0.0999998	0.000104808	281.749738
4.39949	3.244E-10	281.77432	0.0999999	0.000105399	281.77432
4.59949	3.363E-10	281.798828	0.1000001	0.000105986	281.798828
4.79949	3.619E-10	281.823358	0.0999999	0.000106571	281.823358
4.99948	3.505E-10	281.847856	0.1	0.000107152	281.847856
5.1995	3.457E-10	281.872383	0.1000002	0.000107729	281.872383
5.39949	3.714E-10	281.896954	0.0999999	0.000108304	281.896954
5.59949	3.74E-10	281.921494	0.1000001	0.000108874	281.921494
5.79949	3.653E-10	281.946002	0.1000002	0.000109444	281.946002
5.99949	4.204E-10	281.970535	0.0999998	0.000110009	281.970535
6.19952	4.024E-10	281.995034	0.1000001	0.000110571	281.995034
6.39949	4.075E-10	282.019716	0.0999999	0.000111129	282.019716
6.5995	3.833E-10	282.044242	0.1	0.000111685	282.044242
6.79951	3.854E-10	282.068815	0.1	0.000112237	282.068815
6.99949	4.03E-10	282.093341	0.1000001	0.000112784	282.093341
7.19949	3.963E-10	282.117858	0.0999999	0.000113331	282.117858
7.39947	3.336E-10	282.181069	0.0999997	0.000113863	282.181069
7.59948	3.64E-10	282.205627	0.0999999	0.000114406	282.205627
7.79949	3.83E-10	282.230187	0.1000001	0.000114942	282.230187
7.99948	3.912E-10	282.254699	0.1000001	0.000115473	282.254699
8.19949	3.922E-10	282.279262	0.1	0.000116004	282.279262
8.3995	4.028E-10	282.303777	0.1000001	0.000116531	282.303777
8.59947	3.984E-10	282.328303	0.1	0.000117051	282.328303
8.79952	4.052E-10	282.352813	0.1	0.000117572	282.352813
8.99949	4.019E-10	282.377328	0.1	0.000118088	282.377328
9.1995	4.163E-10	282.401843	0.0999998	0.000118603	282.401843
9.39949	4.069E-10	282.426368	0.1	0.000119118	282.426368
9.59951	3.343E-10	282.450883	0.0999999	0.000119628	282.450883
9.7995	3.807E-10	282.475414	0.0999999	0.000120139	282.475414
9.99951	4.287E-10	282.499921	0.1	0.000120646	282.499921
9.99949	3.51E-10	282.523291	0.1000001	0.000120644	282.523291
9.7995	2.783E-10	282.547803	0.1	0.00012014	282.547803
9.59948	2.307E-10	282.572369	0.0999999	0.000119633	282.572369
9.39951	2.02E-10	282.596883	0.1000001	0.000119123	282.596883
9.19949	1.921E-10	282.621413	0.0999998	0.000118611	282.621413
8.9995	2.175E-10	282.681286	0.0999998	0.000118096	282.681286
8.7995	1.444E-10	282.7058	0.1	0.000117577	282.7058
8.59951	1.137E-10	282.730359	0.1	0.000117048	282.730359
8.3995	1.312E-10	282.754877	0.1	0.000116516	282.754877
8.19952	1.096E-10	282.779458	0.0999999	0.000115982	282.779458
7.9995	7.17E-11	282.803969	0.1	0.000115445	282.803969
7.79949	7.52E-11	282.828588	0.0999999	0.000114905	282.828588
7.59951	7.05E-11	282.853091	0.1000002	0.000114361	282.853091
7.3995	4.72E-11	282.877627	0.0999999	0.000113816	282.877627
7.19949	3.64E-11	282.902198	0.1000001	0.000113267	282.902198
6.99951	4.15E-11	282.926729	0.1000001	0.000112714	282.926729
6.79952	1.63E-11	282.951254	0.1	0.000112161	282.951254
6.5995	1.7E-11	282.975766	0.1	0.000111603	282.975766
6.39951	1.76E-11	283.000278	0.1000002	0.000111043	283.000278
6.1995	6.5E-12	283.024867	0.1	0.000110478	283.024867
5.99951	-1.43E-11	283.04938	0.1000001	0.000109912	283.04938
5.79952	-1.67E-11	283.073955	0.1000002	0.000109341	283.073955
5.5995	-2.9E-12	283.098468	0.1	0.000108769	283.098468
5.39947	-2.6E-11	283.122995	0.0999999	0.000108193	283.122995
5.19952	1.19E-11	283.182973	0.1000001	0.000107614	283.182973
4.9995	-1.78E-11	283.207493	0.0999998	0.00010703	283.207493
4.79949	-2.98E-11	283.232077	0.1000001	0.000106445	283.232077
4.5995	-5.52E-11	283.256598	0.1	0.000105857	283.256598
4.39949	-2.97E-11	283.281175	0.1000001	0.000105267	283.281175
4.19949	-5.52E-11	283.305687	0.0999999	0.000104675	283.305687
3.9995	-7.92E-11	283.330203	0.0999998	0.000104083	283.330203
3.79948	-7.44E-11	283.354737	0.0999999	0.000103488	283.354737
3.59953	1.074E-10	283.37926	0.0999999	0.000102892	283.37926
3.3995	-7.55E-11	283.403766	0.1000001	0.000102294	283.403766
3.1995	-8.8E-11	283.428306	0.1000001	0.000101695	283.428306
2.99952	-8.46E-11	283.452824	0.0999997	0.000101098	283.452824
2.79951	-8.44E-11	283.47735	0.1	0.000100501	283.47735
2.59953	-9.9E-11	283.501868	0.1	9.9906E-05	283.501868
2.39952	-1.112E-10	283.526445	0.0999999	9.9309E-05	283.526445
2.1995	-1.008E-10	283.550973	0.1000001	9.8716E-05	283.550973
1.99952	-1.118E-10	283.575526	0.0999999	9.8123E-05	283.575526
1.79951	-1.183E-10	283.600058	0.0999997	9.7531E-05	283.600058
1.59951	-1.157E-10	283.624515	0.1000001	9.6943E-05	283.624515
1.39951	-6.74E-11	283.6846	0.1	9.6358E-05	283.6846
1.19949	-1.337E-10	283.709128	0.1000001	9.577E-05	283.709128
0.9995	-1.188E-10	283.73367	0.1000001	9.5186E-05	283.73367
0.79952	-1.157E-10	283.758185	0.1	9.4604E-05	283.758185
0.59952	-1.439E-10	283.782763	0.1000001	9.4024E-05	283.782763
0.39951	-1.612E-10	283.807279	0.0999999	9.3448E-05	283.807279
0.19951	-1.475E-10	283.831815	0.0999998	9.2874E-05	283.831815
-0.0005	-1.602E-10	283.856328	0.0999999	9.2299E-05	283.856328
-0.2005	-4.406E-10	283.88082	0.1000002	9.1735E-05	283.88082
-0.4005	-1.821E-10	283.905417	0.1	9.1179E-05	283.905417
-0.60048	-1.953E-10	283.930025	0.1	9.0629E-05	283.930025
-0.80048	-1.78E-10	283.954621	0.0999999	9.0096E-05	283.954621
-1.0005	-1.854E-10	283.979137	0.1000001	8.9572E-05	283.979137
-1.20048	-1.907E-10	284.003688	0.0999999	8.9058E-05	284.003688
-1.40049	-1.637E-10	284.03156	0.1000045	8.84713E-05	284.03156
-1.60049	-1.965E-10	284.056084	0.1000044	8.79686E-05	284.056084
-1.8005	-1.86E-10	284.080665	0.1000044	8.74663E-05	284.080665
-2.00047	-2.063E-10	284.105172	0.1000048	8.69669E-05	284.105172
-2.2005	-2.138E-10	284.129704	0.1000052	8.64652E-05	284.129704
-2.40049	-1.73E-10	284.189402	0.1000045	8.59641E-05	284.189402
-2.60048	-1.833E-10	284.214362	0.1000049	8.54608E-05	284.214362
-2.8005	-1.813E-10	284.238942	0.1000039	8.49563E-05	284.238942
-3.00049	-2.097E-10	284.26346	0.1000049	8.4451E-05	284.26346
-3.20048	-2.315E-10	284.288032	0.100005	8.39454E-05	284.288032
-3.4005	-2.039E-10	284.312549	0.1000038	8.3438E-05	284.312549
-3.60047	-2.213E-10	284.337082	0.1000041	8.29305E-05	284.337082
-3.8005	-2.318E-10	284.361602	0.1000039	8.24202E-05	284.361602
-4.00048	-2.47E-10	284.386134	0.1000055	8.19109E-05	284.386134
-4.20049	-2.285E-10	284.410642	0.100004	8.13999E-05	284.410642
-4.40051	-2.409E-10	284.435175	0.1000046	8.08867E-05	284.435175
-4.60049	-2.52E-10	284.459689	0.1000048	8.03733E-05	284.459689
-4.80048	-2.416E-10	284.484216	0.1000052	7.98575E-05	284.484216
-5.0005	-2.594E-10	284.508723	0.1000051	7.93407E-05	284.508723
-5.20049	-2.551E-10	284.533362	0.1000053	7.88228E-05	284.533362
-5.4005	-2.497E-10	284.55796	0.1000052	7.83031E-05	284.55796
-5.60051	-2.55E-10	284.582527	0.1000056	7.7781E-05	284.582527
-5.80049	-2.606E-10	284.607057	0.1000049	7.72567E-05	284.607057
-6.00048	-2.813E-10	284.631573	0.1000048	7.6732E-05	284.631573
-6.2005	-2.239E-10	284.688093	0.1000052	7.62066E-05	284.688093
-6.4005	-2.591E-10	284.712637	0.1000048	7.56775E-05	284.712637
-6.60051	-2.478E-10	284.737204	0.1000045	7.51464E-05	284.737204
-6.80047	-2.612E-10	284.761721	0.100005	7.46128E-05	284.761721
-7.00049	-1.551E-10	284.786299	0.1000059	7.40797E-05	284.786299
-7.2005	-2.669E-10	284.810816	0.1000063	7.3543E-05	284.810816
-7.40049	-2.654E-10	284.835329	0.1000061	7.30034E-05	284.835329
-7.60047	-2.665E-10	284.859858	0.100006	7.24628E-05	284.859858
-7.80049	-2.869E-10	284.884372	0.1000065	7.192E-05	284.884372
-8.00046	-2.897E-10	284.908948	0.1000054	7.1375E-05	284.908948
-8.20046	-2.933E-10	284.933482	0.1000067	7.08293E-05	284.933482
-8.40051	-2.921E-10	284.957994	0.1000054	7.02795E-05	284.957994
-8.60048	-2.964E-10	284.982529	0.100006	6.97298E-05	284.982529
-8.80046	-2.94E-10	285.007041	0.1000059	6.91763E-05	285.007041
-9.00047	-3.125E-10	285.031551	0.1000057	6.86205E-05	285.031551
-9.20049	-3.181E-10	285.056179	0.1000056	6.80642E-05	285.056179
-9.40046	-2.922E-10	285.080764	0.1000067	6.75051E-05	285.080764
-9.60047	-3.178E-10	285.105288	0.1000061	6.69451E-05	285.105288
-9.80048	-3.272E-10	285.129812	0.1000057	6.63852E-05	285.129812
-10.00047	-2.689E-10	285.189959	0.1000058	6.58295E-05	285.189959
-10.20049	-2.892E-10	285.214472	0.1000055	6.52641E-05	285.214472
-10.40049	-2.99E-10	285.239052	0.1000056	6.46985E-05	285.239052
-10.60046	-3.137E-10	285.263571	0.1000073	6.413E-05	285.263571
-10.80047	-4.032E-10	285.288176	0.1000062	6.35579E-05	285.288176
-11.00048	-3.566E-10	285.312674	0.1000042	6.29837E-05	285.312674
-11.20048	-3.438E-10	285.33729	0.1000061	6.24083E-05	285.33729
-11.40049	-3.226E-10	285.361812	0.1000065	6.18304E-05	285.361812
-11.60048	-3.479E-10	285.386337	0.1000052	6.12504E-05	285.386337
-11.80047	-3.586E-10	285.410858	0.1000071	6.06703E-05	285.410858
-12.00048	-3.46E-10	285.435353	0.1000067	6.00863E-05	285.435353
#scan	iMeasureCycle=3	iMux=0	time=319.674	N=222	LocalTime=22/06/2023 04:32:09
#VGate(V)	IGate(A)	time(s)	VDrain(V)	IDrain(A)	time(s)
-12.00047	-8.64E-11	319.681582	0.1000067	6.01204E-05	319.681582
-11.8005	-1.547E-10	319.706476	0.1000055	6.07062E-05	319.706476
-11.60049	-7E-12	319.732092	0.1000062	6.12909E-05	319.732092
-11.4005	1.2E-11	319.756622	0.1000074	6.18735E-05	319.756622
-11.20051	2.55E-11	319.781159	0.1000046	6.24531E-05	319.781159
-11.00046	5.53E-11	319.805676	0.1000062	6.30314E-05	319.805676
-10.80049	5.86E-11	319.830187	0.100006	6.36081E-05	319.830187
-10.6005	5.7E-11	319.85475	0.1000057	6.41826E-05	319.85475
-10.40048	8.01E-11	319.879262	0.1000058	6.47536E-05	319.879262
-10.20048	8.08E-11	319.903782	0.100006	6.5324E-05	319.903782
-10.00047	9.3E-11	319.928293	0.1000052	6.58911E-05	319.928293
-9.80048	9.15E-11	319.952805	0.1000053	6.64589E-05	319.952805
-9.6005	1.164E-10	319.977386	0.1000056	6.70223E-05	319.977386
-9.40049	1.005E-10	320.001987	0.1000055	6.75861E-05	320.001987
-9.2005	1.105E-10	320.026562	0.100005	6.81465E-05	320.026562
-9.00051	1.339E-10	320.05108	0.1000057	6.8701E-05	320.05108
-8.80049	1.35E-10	320.075603	0.1000062	6.92565E-05	320.075603
-8.60051	1.258E-10	320.100105	0.1000057	6.98048E-05	320.100105
-8.4005	1.415E-10	320.12463	0.1000051	7.03528E-05	320.12463
-8.20048	1.547E-10	320.149194	0.1000054	7.0899E-05	320.149194
-8.0005	1.49E-10	320.173738	0.1000044	7.14426E-05	320.173738
-7.80046	1.432E-10	320.198279	0.1000054	7.1985E-05	320.198279
-7.60048	1.212E-10	320.245693	0.1000063	7.25244E-05	320.245693
-7.4005	1.451E-10	320.270222	0.1000049	7.30628E-05	320.270222
-7.20049	1.658E-10	320.294842	0.1000059	7.35995E-05	320.294842
-7.00048	1.737E-10	320.319363	0.1000049	7.41353E-05	320.319363
-6.80048	1.647E-10	320.343947	0.1000045	7.46686E-05	320.343947
-6.6005	1.743E-10	320.368457	0.1000046	7.52013E-05	320.368457
-6.40049	2.122E-10	320.392992	0.1000049	7.57325E-05	320.392992
-6.20051	1.827E-10	320.417508	0.1000047	7.62602E-05	320.417508
-6.00049	1.757E-10	320.442044	0.1000057	7.67873E-05	320.442044
-5.80047	2.093E-10	320.466562	0.1000043	7.73121E-05	320.466562
-5.60049	2.004E-10	320.491101	0.1000045	7.78361E-05	320.491101
-5.40049	2.067E-10	320.515622	0.1000061	7.83591E-05	320.515622
-5.20048	2.116E-10	320.540159	0.1000052	7.88786E-05	320.540159
-5.0005	2.106E-10	320.564667	0.1000058	7.93967E-05	320.564667
-4.8005	2.226E-10	320.589216	0.1000048	7.99127E-05	320.589216
-4.6005	2.186E-10	320.613738	0.1000042	8.04285E-05	320.613738
-4.4005	2.347E-10	320.638317	0.1000051	8.09421E-05	320.638317
-4.2005	2.351E-10	320.662828	0.1000054	8.14555E-05	320.662828
-4.00049	2.247E-10	320.687356	0.1000046	8.19668E-05	320.687356
-3.80051	1.9E-10	320.746954	0.1000053	8.24738E-05	320.746954
-3.60049	2.201E-10	320.77149	0.1000048	8.29836E-05	320.77149
-3.40049	2.186E-10	320.796125	0.1000045	8.34913E-05	320.796125
-3.20049	2.301E-10	320.820648	0.1000049	8.40003E-05	320.820648
-3.00049	2.574E-10	320.845203	0.1000045	8.4508E-05	320.845203
-2.8005	2.414E-10	320.869716	0.100004	8.50125E-05	320.869716
-2.60047	2.399E-10	320.89425	0.1000049	8.5517E-05	320.89425
-2.40049	3.792E-10	320.918764	0.100005	8.6022E-05	320.918764
-2.2005	2.761E-10	320.943276	0.100005	8.65254E-05	320.943276
-2.0005	2.685E-10	320.967867	0.1000055	8.70276E-05	320.967867
-1.80051	2.917E-10	320.992413	0.1000049	8.75312E-05	320.992413
-1.60049	2.764E-10	321.016927	0.1000056	8.80355E-05	321.016927
-1.40051	2.76E-10	321.041458	0.1000047	8.85399E-05	321.041458
-1.2005	2.861E-10	321.065972	0.1000042	8.90534E-05	321.065972
-1.00051	2.911E-10	321.090507	0.1000044	8.95728E-05	321.090507
-0.80051	2.959E-10	321.115031	0.1000054	9.01047E-05	321.115031
-0.60049	2.848E-10	321.139614	0.100005	9.06452E-05	321.139614
-0.40051	1.561E-10	321.164123	0.100004	9.11959E-05	321.164123
-0.20051	2.98E-10	321.188659	0.1000037	9.17567E-05	321.188659
-0.0005	2.322E-10	321.24857	0.1000043	9.23182E-05	321.24857
0.1995	2.82E-10	321.273091	0.1000047	9.28907E-05	321.273091
0.39951	2.858E-10	321.297699	0.1000041	9.34658E-05	321.297699
0.5995	2.905E-10	321.322245	0.1000041	9.40444E-05	321.322245
0.79947	2.893E-10	321.346827	0.1000039	9.46235E-05	321.346827
0.99949	3.17E-10	321.371341	0.1000042	9.52035E-05	321.371341
1.1995	3.087E-10	321.395882	0.1000044	9.57873E-05	321.395882
1.39951	3.018E-10	321.420399	0.1000039	9.63716E-05	321.420399
1.59951	3.231E-10	321.444926	0.1000047	9.69594E-05	321.444926
1.79949	3.295E-10	321.469446	0.1000043	9.7548E-05	321.469446
1.99949	3.164E-10	321.493979	0.1000042	9.81369E-05	321.493979
2.19948	3.262E-10	321.518505	0.1000037	9.87292E-05	321.518505
2.39951	3.424E-10	321.543033	0.1000036	9.93207E-05	321.543033
2.59951	3.326E-10	321.567536	0.1000037	9.99147E-05	321.567536
2.79949	3.351E-10	321.592056	0.1000032	0.0001005089	321.592056
2.99949	3.452E-10	321.616569	0.1000036	0.0001011046	321.616569
3.1995	3.514E-10	321.64116	0.1000039	0.0001016992	321.64116
3.39949	3.429E-10	321.66568	0.1000036	0.0001022943	321.66568
3.5995	3.433E-10	321.69021	0.1000031	0.0001028875	321.69021
3.7995	3.036E-10	321.75028	0.1000036	0.0001034754	321.75028
3.99949	3.334E-10	321.774812	0.1000028	0.0001040702	321.774812
4.19949	3.271E-10	321.799378	0.1000031	0.0001046611	321.799378
4.39947	3.123E-10	321.828939	0.1000001	0.000105329	321.828939
4.59949	3.447E-10	321.853524	0.1	0.000105915	321.853524
4.79951	3.609E-10	321.878031	0.1	0.0001065	321.878031
4.99949	3.477E-10	321.902563	0.1	0.000107081	321.902563
5.19948	3.55E-10	321.927085	0.1	0.000107658	321.927085
5.39948	3.666E-10	321.951611	0.1000001	0.000108234	321.951611
5.59952	3.701E-10	321.976184	0.1	0.000108807	321.976184
5.79949	3.624E-10	322.000742	0.0999999	0.000109376	322.000742
5.9995	3.657E-10	322.025348	0.1000002	0.00010994	322.025348
6.1995	3.921E-10	322.049954	0.0999999	0.000110502	322.049954
6.39949	3.83E-10	322.07448	0.1000003	0.000111061	322.07448
6.59949	3.645E-10	322.099001	0.1	0.000111619	322.099001
6.79949	3.955E-10	322.123537	0.1000003	0.000112169	322.123537
6.9995	3.883E-10	322.148107	0.0999999	0.000112718	322.148107
7.19949	3.939E-10	322.172637	0.0999999	0.000113265	322.172637
7.39948	3.803E-10	322.197241	0.0999999	0.000113808	322.197241
7.59945	3.409E-10	322.254744	0.0999999	0.000114342	322.254744
7.79949	3.605E-10	322.279311	0.0999998	0.000114879	322.279311
7.99949	3.912E-10	322.303866	0.1	0.000115412	322.303866
8.1995	5.343E-10	322.328386	0.1	0.000115942	322.328386
8.3995	4.18E-10	322.352973	0.0999999	0.000116467	322.352973
8.59951	4.077E-10	322.377477	0.1000001	0.00011699	322.377477
8.79949	4.086E-10	322.402011	0.1000001	0.000117509	322.402011
8.99948	4.049E-10	322.426512	0.0999997	0.000118026	322.426512
9.19949	4.099E-10	322.451046	0.1000001	0.000118541	322.451046
9.39949	4.226E-10	322.475559	0.0999999	0.000119055	322.475559
9.5995	4.147E-10	322.500084	0.1000001	0.00011957	322.500084
9.79949	4.162E-10	322.524598	0.0999999	0.000120079	322.524598
9.9995	4.227E-10	322.549141	0.0999999	0.000120586	322.549141
9.99949	1.914E-10	322.572483	0.0999999	0.000120584	322.572483
9.7995	2.452E-10	322.596989	0.1000001	0.000120077	322.596989
9.5995	2.188E-10	322.621516	0.1000001	0.00011957	322.621516
9.3995	2.095E-10	322.646095	0.1	0.000119061	322.646095
9.1995	1.785E-10	322.67061	0.0999998	0.000118547	322.67061
8.99949	1.478E-10	322.695136	0.0999997	0.000118032	322.695136
8.79952	1.779E-10	322.753562	0.1000002	0.000117511	322.753562
8.5995	1.307E-10	322.778077	0.0999999	0.000116983	322.778077
8.3995	1.093E-10	322.802637	0.0999998	0.000116453	322.802637
8.1995	9.71E-11	322.82714	0.1000001	0.000115918	322.82714
7.99951	9.78E-11	322.851728	0.1	0.00011538	322.851728
7.79949	6.6E-11	322.876245	0.1	0.000114838	322.876245
7.59949	7.84E-11	322.90076	0.1	0.000114295	322.90076
7.39952	5.21E-11	322.925277	0.1000002	0.000113752	322.925277
7.1995	2.95E-11	322.949797	0.1000001	0.0001132	322.949797
6.99948	4.62E-11	322.974368	0.0999999	0.000112649	322.974368
6.79951	2.95E-11	322.99889	0.1000001	0.000112094	322.99889
6.59949	7.1E-12	323.023418	0.0999999	0.000111536	323.023418
6.39948	7.7E-12	323.047935	0.0999999	0.000110974	323.047935
6.19952	2.16E-11	323.072454	0.0999998	0.000110409	323.072454
5.9995	-8.8E-12	323.096973	0.0999999	0.000109842	323.096973
5.79952	-1.9E-11	323.121587	0.0999999	0.00010927	323.121587
5.59951	-2.23E-11	323.146155	0.1	0.000108699	323.146155
5.39952	-1.22E-11	323.170694	0.1	0.00010812	323.170694
5.19949	-3.46E-11	323.195212	0.1000001	0.000107541	323.195212
4.99952	1.42E-11	323.255266	0.1000001	0.000106962	323.255266
4.79949	-3.07E-11	323.279781	0.0999999	0.000106373	323.279781
4.5995	-3E-11	323.304571	0.0999999	0.000105787	323.304571
4.39952	-5.09E-11	323.329116	0.1	0.000105197	323.329116
4.19951	-4.52E-11	323.353695	0.1	0.000104604	323.353695
3.99951	-5.5E-11	323.378233	0.1	0.00010401	323.378233
3.79947	-8.54E-11	323.402753	0.0999998	0.000103413	323.402753
3.59952	-8.03E-11	323.4273	0.1	0.000102818	323.4273
3.3995	-7.03E-11	323.451814	0.1	0.00010222	323.451814
3.19949	-9.34E-11	323.476337	0.0999997	0.00010162	323.476337
2.99951	-9.96E-11	323.500853	0.1	0.000101024	323.500853
2.79952	-8.89E-11	323.525372	0.1	0.000100427	323.525372
2.59951	-1.036E-10	323.549876	0.1	9.9831E-05	323.549876
2.39949	-1.066E-10	323.574388	0.1	9.9235E-05	323.574388
2.19953	-1.111E-10	323.598911	0.1	9.8639E-05	323.598911
1.99951	-1.254E-10	323.623499	0.0999999	9.8047E-05	323.623499
1.79951	-1.165E-10	323.648067	0.1	9.7455E-05	323.648067
1.59949	-1.262E-10	323.672597	0.1	9.6865E-05	323.672597
1.39948	-1.152E-10	323.697126	0.1000002	9.6278E-05	323.697126
1.19949	-5.41E-11	323.75714	0.1	9.5694E-05	323.75714
0.9995	-1.11E-10	323.781683	0.1	9.511E-05	323.781683
0.79951	-1.112E-10	323.806221	0.1000001	9.4525E-05	323.806221
0.59949	-1.231E-10	323.830757	0.1000001	9.3945E-05	323.830757
0.3995	-1.41E-10	323.855341	0.1000001	9.3367E-05	323.855341
0.1995	-1.531E-10	323.879866	0.1000001	9.2793E-05	323.879866
-0.00049	-1.437E-10	323.904359	0.1000002	9.2221E-05	323.904359
-0.20049	-1.578E-10	323.928891	0.1000001	9.1657E-05	323.928891
-0.4005	-1.721E-10	323.953402	0.0999999	9.11E-05	323.953402
-0.60049	-1.631E-10	323.977988	0.0999997	9.0553E-05	323.977988
-0.80052	-2.4E-10	324.002523	0.1	9.0018E-05	324.002523
-1.00049	-1.931E-10	324.027118	0.0999997	8.9495E-05	324.027118
-1.2005	-1.907E-10	324.05165	0.1	8.8979E-05	324.05165
-1.4005	-1.988E-10	324.076171	0.0999999	8.8472E-05	324.076171
-1.60049	-1.595E-10	324.104045	0.1000039	8.78886E-05	324.104045
-1.80052	-1.965E-10	324.128558	0.1000038	8.73871E-05	324.128558
-2.0005	-2.168E-10	324.153135	0.1000048	8.68869E-05	324.153135
-2.20049	-2.037E-10	324.177666	0.1000033	8.63846E-05	324.177666
-2.40052	-2.117E-10	324.202167	0.1000038	8.58823E-05	324.202167
-2.60049	-1.68E-10	324.261333	0.1000045	8.5381E-05	324.261333
-2.80049	-1.908E-10	324.285896	0.1000048	8.48759E-05	324.285896
-3.0005	-1.921E-10	324.310669	0.1000044	8.43714E-05	324.310669
-3.20051	-2.144E-10	324.335279	0.1000038	8.38645E-05	324.335279
-3.40051	-2.164E-10	324.359853	0.1000045	8.3358E-05	324.359853
-3.60048	-2.116E-10	324.384378	0.100005	8.2849E-05	324.384378
-3.80049	-2.307E-10	324.408895	0.1000042	8.23402E-05	324.408895
-4.0005	-2.353E-10	324.433351	0.1000046	8.18297E-05	324.433351
-4.20048	-2.278E-10	324.457862	0.1000049	8.13189E-05	324.457862
-4.40048	-2.456E-10	324.482368	0.1000047	8.08058E-05	324.482368
-4.6005	-2.473E-10	324.506881	0.1000049	8.02914E-05	324.506881
-4.80049	-2.501E-10	324.531405	0.1000048	7.97761E-05	324.531405
-5.00048	-2.48E-10	324.555939	0.1000052	7.92587E-05	324.555939
-5.20049	-2.646E-10	324.580452	0.1000052	7.87404E-05	324.580452
-5.4005	-2.738E-10	324.604963	0.1000052	7.82206E-05	324.604963
-5.60049	-2.546E-10	324.62948	0.1000043	7.76971E-05	324.62948
-5.80047	-2.611E-10	324.654047	0.1000047	7.71736E-05	324.654047
-6.00049	-2.816E-10	324.678565	0.1000055	7.66486E-05	324.678565
-6.20049	-2.689E-10	324.703084	0.1000053	7.61205E-05	324.703084
-6.40048	-2.294E-10	324.760291	0.100005	7.55927E-05	324.760291
-6.6005	-2.589E-10	324.784827	0.1000055	7.50617E-05	324.784827
-6.80046	-2.613E-10	324.80936	0.1000052	7.45297E-05	324.80936
-7.0005	-2.664E-10	324.833884	0.1000054	7.39936E-05	324.833884
-7.2005	-2.865E-10	324.858469	0.100005	7.34564E-05	324.858469
-7.40048	-2.826E-10	324.882989	0.1000056	7.29175E-05	324.882989
-7.60047	-2.804E-10	324.907506	0.1000047	7.23756E-05	324.907506
-7.80047	-2.921E-10	324.932021	0.100005	7.18331E-05	324.932021
-8.00049	-2.921E-10	324.95655	0.1000052	7.12882E-05	324.95655
-8.2005	-3.048E-10	324.981106	0.1000056	7.07417E-05	324.981106
-8.40047	-3.083E-10	325.00564	0.1000061	7.01935E-05	325.00564
-8.60048	-3.06E-10	325.030155	0.1000051	6.96406E-05	325.030155
-8.80046	-2.964E-10	325.054696	0.1000059	6.90881E-05	325.054696
-9.00049	-3.145E-10	325.079215	0.1000049	6.85317E-05	325.079215
-9.20048	-3.198E-10	325.103741	0.1000055	6.79756E-05	325.103741
-9.40048	-3.113E-10	325.128255	0.1000057	6.74159E-05	325.128255
-9.60048	-4.63E-11	325.152839	0.1000055	6.68555E-05	325.152839
-9.80046	-3.072E-10	325.177365	0.1000065	6.62953E-05	325.177365
-10.00047	-3.234E-10	325.201901	0.1000057	6.57313E-05	325.201901
-10.20048	-2.565E-10	325.262042	0.1000062	6.51755E-05	325.262042
-10.40047	-3.057E-10	325.286563	0.1000054	6.46083E-05	325.286563
-10.6005	-3.112E-10	325.311124	0.1000055	6.40387E-05	325.311124
-10.80047	-3.172E-10	325.335651	0.1000056	6.34674E-05	325.335651
-11.00047	-3.192E-10	325.360249	0.1000055	6.2893E-05	325.360249
-11.20048	-3.271E-10	325.384761	0.1000064	6.23178E-05	325.384761
-11.40048	-5.048E-10	325.4093	0.1000055	6.17393E-05	325.4093
-11.60048	-3.38E-10	325.433811	0.1000067	6.11598E-05	325.433811
-11.80049	-3.499E-10	325.458354	0.1000063	6.05778E-05	325.458354
-12.00048	-3.622E-10	325.482858	0.1000057	5.99937E-05	325.482858
