#scan	iMeasureCycle=1	iMux=0	time=0.038	N=222	LocalTime=22/06/2023 09:20:51
#VGate(V)	IGate(A)	time(s)	VDrain(V)	IDrain(A)	time(s)
-12.00048	-3.1747E-09	0.06129	0.1000053	6.95018E-05	0.06129
-11.8005	-3.0339E-09	0.086165	0.100006	7.00582E-05	0.086165
-11.6005	-1.3631E-09	0.110689	0.1000048	7.06111E-05	0.110689
-11.4005	-5.427E-10	0.135198	0.1000051	7.11608E-05	0.135198
-11.2005	-3.552E-10	0.159719	0.1000058	7.17095E-05	0.159719
-11.00049	-5.89E-11	0.184237	0.1000062	7.22555E-05	0.184237
-10.80048	-1.248E-10	0.208759	0.1000056	7.27989E-05	0.208759
-10.60049	-9.48E-11	0.233276	0.1000062	7.33388E-05	0.233276
-10.40048	-9.47E-11	0.257783	0.1000059	7.38777E-05	0.257783
-10.20049	-2.94E-11	0.282334	0.1000052	7.44128E-05	0.282334
-10.00049	1.65E-11	0.30686	0.1000062	7.49483E-05	0.30686
-9.80048	6.3E-12	0.331416	0.1000057	7.54777E-05	0.331416
-9.60049	7.6E-12	0.356013	0.1000055	7.60081E-05	0.356013
-9.40049	4.21E-11	0.380534	0.1000059	7.65365E-05	0.380534
-9.20049	5.35E-11	0.405062	0.1000053	7.70622E-05	0.405062
-9.00047	6.16E-11	0.429577	0.1000066	7.75816E-05	0.429577
-8.80048	6.22E-11	0.454071	0.100006	7.80977E-05	0.454071
-8.60048	6.2E-11	0.478612	0.1000062	7.8612E-05	0.478612
-8.40049	9.52E-11	0.503133	0.1000052	7.91234E-05	0.503133
-8.2005	1.05E-10	0.527666	0.1000041	7.96325E-05	0.527666
-8.00047	4.8E-12	0.552165	0.1000055	8.01421E-05	0.552165
-7.80049	7.07E-11	0.576698	0.1000044	8.06461E-05	0.576698
-7.60049	8.64E-11	0.624534	0.100005	8.11497E-05	0.624534
-7.40049	1.192E-10	0.64907	0.100004	8.16526E-05	0.64907
-7.2005	1.009E-10	0.673591	0.1000047	8.21544E-05	0.673591
-7.00047	1.169E-10	0.69812	0.1000046	8.26547E-05	0.69812
-6.80047	1.409E-10	0.722693	0.1000045	8.3153E-05	0.722693
-6.6005	1.524E-10	0.747203	0.1000047	8.36495E-05	0.747203
-6.40048	1.414E-10	0.77172	0.1000053	8.41451E-05	0.77172
-6.20049	1.525E-10	0.796234	0.100005	8.46377E-05	0.796234
-6.00049	1.697E-10	0.82076	0.1000051	8.51284E-05	0.82076
-5.8005	1.643E-10	0.845281	0.1000053	8.5619E-05	0.845281
-5.60049	1.798E-10	0.869798	0.100005	8.61072E-05	0.869798
-5.4005	1.865E-10	0.894338	0.1000049	8.65954E-05	0.894338
-5.20049	1.704E-10	0.918847	0.1000037	8.70786E-05	0.918847
-5.0005	1.828E-10	0.943369	0.1000043	8.75641E-05	0.943369
-4.80049	2.263E-10	0.967944	0.1000043	8.80472E-05	0.967944
-4.60051	1.937E-10	0.992489	0.1000037	8.85262E-05	0.992489
-4.40047	1.819E-10	1.017038	0.1000037	8.90076E-05	1.017038
-4.20048	2.135E-10	1.041551	0.1000037	8.94865E-05	1.041551
-4.0005	2.217E-10	1.066093	0.1000049	8.99658E-05	1.066093
-3.8005	1.707E-10	1.126041	0.1000043	9.04387E-05	1.126041
-3.60047	2.011E-10	1.150582	0.1000049	9.09145E-05	1.150582
-3.40051	2.074E-10	1.175125	0.1000047	9.13894E-05	1.175125
-3.2005	2.097E-10	1.199666	0.1000043	9.18637E-05	1.199666
-3.00049	2.242E-10	1.224226	0.1000042	9.23361E-05	1.224226
-2.8005	2.543E-10	1.248762	0.1000043	9.28069E-05	1.248762
-2.60047	2.297E-10	1.273275	0.1000044	9.32779E-05	1.273275
-2.40048	2.235E-10	1.297857	0.1000043	9.37469E-05	1.297857
-2.2005	2.532E-10	1.322401	0.1000032	9.42135E-05	1.322401
-2.00049	2.692E-10	1.346928	0.1000034	9.46829E-05	1.346928
-1.8005	2.487E-10	1.371472	0.1000045	9.5153E-05	1.371472
-1.60047	2.315E-10	1.396086	0.1000041	9.56242E-05	1.396086
-1.4005	2.79E-10	1.420616	0.100004	9.61008E-05	1.420616
-1.2005	2.756E-10	1.445127	0.1000036	9.65839E-05	1.445127
-1.00051	2.636E-10	1.469651	0.1000041	9.70785E-05	1.469651
-0.80049	2.77E-10	1.49417	0.100004	9.75795E-05	1.49417
-0.60047	2.753E-10	1.518724	0.1000042	9.80906E-05	1.518724
-0.40048	2.818E-10	1.543237	0.1000035	9.86094E-05	1.543237
-0.20052	3.02E-10	1.567781	0.1000031	9.91329E-05	1.567781
-0.0005	2.721E-10	1.627623	0.1000042	9.96546E-05	1.627623
0.19949	2.79E-10	1.652157	0.1000042	0.0001001866	1.652157
0.39953	2.634E-10	1.676672	0.1000055	0.0001007232	1.676672
0.59951	3.081E-10	1.701182	0.1000044	0.0001012582	1.701182
0.7995	3.151E-10	1.725758	0.1000045	0.0001017937	1.725758
0.99952	2.971E-10	1.75027	0.1000038	0.0001023323	1.75027
1.1995	3.126E-10	1.774783	0.100004	0.0001028709	1.774783
1.39951	3.161E-10	1.799301	0.1000042	0.0001034137	1.799301
1.59951	3.247E-10	1.823808	0.1000045	0.0001039568	1.823808
1.79951	3.301E-10	1.848331	0.1000043	0.0001045015	1.848331
1.9995	2.795E-10	1.877865	0.0999999	0.000105125	1.877865
2.19951	3.228E-10	1.902439	0.1	0.000105672	1.902439
2.39951	3.533E-10	1.926972	0.1000001	0.000106219	1.926972
2.5995	2.404E-10	1.951482	0.0999998	0.000106767	1.951482
2.79948	2.976E-10	1.976074	0.1	0.000107314	1.976074
2.99948	3.367E-10	2.000553	0.0999999	0.000107863	2.000553
3.1995	3.538E-10	2.025094	0.1	0.000108412	2.025094
3.3995	3.384E-10	2.04962	0.0999999	0.000108962	2.04962
3.59951	3.381E-10	2.074148	0.0999997	0.000109509	2.074148
3.79949	2.822E-10	2.131986	0.1000001	0.00011005	2.131986
3.99949	3.149E-10	2.156539	0.0999999	0.000110598	2.156539
4.1995	3.514E-10	2.181045	0.1000001	0.000111144	2.181045
4.3995	3.542E-10	2.205666	0.0999999	0.000111686	2.205666
4.5995	3.536E-10	2.230251	0.1	0.000112229	2.230251
4.79949	3.553E-10	2.25478	0.0999998	0.000112767	2.25478
4.99948	3.679E-10	2.279288	0.1	0.000113307	2.279288
5.19949	3.696E-10	2.303834	0.1	0.000113841	2.303834
5.39949	3.619E-10	2.328359	0.1000001	0.00011437	2.328359
5.5995	3.867E-10	2.352976	0.1	0.000114901	2.352976
5.79949	3.643E-10	2.377504	0.1000002	0.000115428	2.377504
5.9995	3.692E-10	2.402019	0.0999999	0.000115951	2.402019
6.19948	4.02E-10	2.426539	0.1000001	0.000116472	2.426539
6.39946	3.951E-10	2.451049	0.0999998	0.000116991	2.451049
6.5995	3.775E-10	2.475562	0.0999998	0.000117505	2.475562
6.79952	3.835E-10	2.50008	0.1	0.000118014	2.50008
6.99949	4.03E-10	2.524623	0.1	0.000118526	2.524623
7.19951	3.993E-10	2.549128	0.1	0.000119032	2.549128
7.3995	3.895E-10	2.573656	0.0999999	0.000119536	2.573656
7.59949	3.439E-10	2.631221	0.1000001	0.000120033	2.631221
7.79951	3.533E-10	2.655733	0.1	0.000120532	2.655733
7.9995	3.928E-10	2.680262	0.1000001	0.000121027	2.680262
8.19948	4.082E-10	2.704782	0.0999999	0.000121521	2.704782
8.3995	3.911E-10	2.729341	0.0999998	0.000122009	2.729341
8.5995	3.918E-10	2.753872	0.1000001	0.000122498	2.753872
8.79951	4.071E-10	2.778379	0.0999998	0.000122983	2.778379
8.9995	4.104E-10	2.802915	0.0999999	0.000123461	2.802915
9.1995	4.299E-10	2.827425	0.1	0.000123943	2.827425
9.39949	4.131E-10	2.852011	0.1	0.000124424	2.852011
9.59949	4.136E-10	2.876528	0.1000002	0.000124901	2.876528
9.79951	4.227E-10	2.901062	0.1	0.000125376	2.901062
9.99949	4.28E-10	2.92558	0.1	0.000125853	2.92558
9.99949	3.82E-10	2.948921	0.0999999	0.000125852	2.948921
9.79953	2.828E-10	2.973496	0.0999999	0.000125379	2.973496
9.59949	3.511E-10	2.998026	0.1	0.000124907	2.998026
9.39951	2.513E-10	3.022539	0.1	0.00012443	3.022539
9.19951	2.224E-10	3.047067	0.0999998	0.000123951	3.047067
8.99949	1.687E-10	3.07157	0.0999999	0.000123473	3.07157
8.79952	1.986E-10	3.128324	0.1	0.000122985	3.128324
8.59951	1.451E-10	3.152851	0.1	0.000122491	3.152851
8.39952	1.205E-10	3.177379	0.0999999	0.000121996	3.177379
8.19952	1.151E-10	3.201977	0.0999998	0.000121496	3.201977
7.99951	1.187E-10	3.22658	0.1	0.000120997	3.22658
7.7995	8.43E-11	3.251099	0.0999999	0.000120492	3.251099
7.59951	2.58E-11	3.275651	0.0999999	0.000119985	3.275651
7.39949	6.05E-11	3.300426	0.1	0.000119477	3.300426
7.19951	4.09E-11	3.324947	0.1000001	0.000118966	3.324947
6.99949	5.13E-11	3.349518	0.0999999	0.000118452	3.349518
6.79951	3.78E-11	3.374105	0.1000001	0.000117936	3.374105
6.59949	7.3E-12	3.398636	0.0999999	0.00011742	3.398636
6.39949	1.43E-11	3.423153	0.1000001	0.000116898	3.423153
6.19952	2.73E-11	3.447679	0.1	0.000116374	3.447679
5.99952	-2.8E-12	3.472195	0.0999999	0.000115848	3.472195
5.79951	-2.75E-11	3.496716	0.0999999	0.000115319	3.496716
5.5995	-1.25E-11	3.521232	0.1	0.000114787	3.521232
5.39948	9.5E-12	3.545774	0.1000001	0.000114252	3.545774
5.19951	-3.12E-11	3.570281	0.1000001	0.000113715	3.570281
4.99951	1.93E-11	3.632216	0.1000001	0.000113174	3.632216
4.7995	-1.87E-11	3.656814	0.0999999	0.000112634	3.656814
4.5995	-1.52E-11	3.681326	0.0999998	0.000112091	3.681326
4.3995	-2.82E-11	3.705868	0.1000001	0.000111542	3.705868
4.19949	-6.44E-11	3.730431	0.1000001	0.000110995	3.730431
3.9995	-5.14E-11	3.754961	0.1000001	0.000110445	3.754961
3.79951	-6.76E-11	3.779464	0.1000001	0.000109895	3.779464
3.59951	-7.57E-11	3.803998	0.1000001	0.000109343	3.803998
3.39951	-7.16E-11	3.828519	0.1	0.000108792	3.828519
3.19952	-9.1E-11	3.853099	0.1	0.00010824	3.853099
2.99951	-9.99E-11	3.877621	0.0999999	0.000107686	3.877621
2.7995	-9.03E-11	3.902143	0.0999999	0.000107136	3.902143
2.5995	-8.92E-11	3.92662	0.0999999	0.000106585	3.92662
2.39952	-1.068E-10	3.951149	0.1000002	0.000106035	3.951149
2.19951	-1.353E-10	3.975721	0.1	0.000105485	3.975721
1.99951	-1.055E-10	4.000265	0.1	0.000104936	4.000265
1.7995	-1.071E-10	4.024871	0.0999998	0.000104387	4.024871
1.5995	-1.395E-10	4.04939	0.0999999	0.000103841	4.04939
1.3995	-1.329E-10	4.073912	0.0999998	0.000103296	4.073912
1.1995	-7.61E-11	4.135024	0.1000001	0.000102759	4.135024
0.99952	-1.097E-10	4.1596	0.0999999	0.000102218	4.1596
0.79949	-1.36E-10	4.184114	0.0999998	0.000101677	4.184114
0.5995	-1.212E-10	4.20864	0.1	0.000101136	4.20864
0.39953	-1.445E-10	4.233204	0.1	0.0001006	4.233204
0.19949	-1.693E-10	4.257717	0.0999999	0.000100066	4.257717
-0.00048	-1.458E-10	4.282227	0.1	9.9535E-05	4.282227
-0.20049	-1.398E-10	4.306807	0.0999999	9.9005E-05	4.306807
-0.40048	-1.727E-10	4.331334	0.1	9.8482E-05	4.331334
-0.60047	-1.978E-10	4.35585	0.1000001	9.7967E-05	4.35585
-0.80048	-1.659E-10	4.38037	0.1	9.7458E-05	4.38037
-1.00049	5.17E-11	4.404896	0.1	9.6962E-05	4.404896
-1.20047	-1.698E-10	4.429526	0.1000003	9.6475E-05	4.429526
-1.40049	-1.891E-10	4.45404	0.1	9.5995E-05	4.45404
-1.60049	-1.794E-10	4.478574	0.1000001	9.5522E-05	4.478574
-1.8005	-1.907E-10	4.503088	0.1000001	9.5054E-05	4.503088
-2.00049	-1.98E-10	4.527627	0.1000001	9.4585E-05	4.527627
-2.2005	-1.979E-10	4.552142	0.0999999	9.4116E-05	4.552142
-2.4005	-2.205E-10	4.576681	0.1	9.3648E-05	4.576681
-2.60049	-1.536E-10	4.638686	0.0999999	9.3181E-05	4.638686
-2.80048	-1.966E-10	4.663227	0.0999998	9.2711E-05	4.663227
-3.00051	-1.879E-10	4.687741	0.0999998	9.2241E-05	4.687741
-3.20048	-2.154E-10	4.712261	0.0999998	9.1768E-05	4.712261
-3.40049	-3.499E-10	4.736837	0.0999999	9.1294E-05	4.736837
-3.60048	-2.288E-10	4.761363	0.1	9.0822E-05	4.761363
-3.80047	-2.19E-10	4.785882	0.0999998	9.0346E-05	4.785882
-4.00049	-2.411E-10	4.810392	0.1000001	8.9868E-05	4.810392
-4.2005	-2.642E-10	4.834939	0.0999997	8.939E-05	4.834939
-4.4005	-2.392E-10	4.85954	0.1	8.8913E-05	4.85954
-4.60048	-2.369E-10	4.884095	0.1	8.8434E-05	4.884095
-4.80047	-2.573E-10	4.90862	0.0999999	8.7954E-05	4.90862
-5.00048	-2.498E-10	4.936509	0.100004	8.73886E-05	4.936509
-5.20049	-2.505E-10	4.961032	0.1000038	8.69044E-05	4.961032
-5.40048	-2.406E-10	4.9856	0.100005	8.64205E-05	4.9856
-5.60049	-2.587E-10	5.010125	0.1000044	8.59315E-05	5.010125
-5.80048	-2.835E-10	5.034638	0.1000043	8.54428E-05	5.034638
-6.00048	-2.667E-10	5.059172	0.1000043	8.49517E-05	5.059172
-6.20048	-2.6E-10	5.083683	0.1000047	8.44574E-05	5.083683
-6.40048	-2.166E-10	5.142937	0.1000044	8.39656E-05	5.142937
-6.60048	-2.373E-10	5.167458	0.100005	8.34692E-05	5.167458
-6.80046	-2.688E-10	5.191974	0.1000051	8.29708E-05	5.191974
-7.00049	-2.836E-10	5.216502	0.1000051	8.24713E-05	5.216502
-7.20048	-2.687E-10	5.241061	0.1000051	8.1969E-05	5.241061
-7.40048	-2.571E-10	5.265597	0.1000049	8.14645E-05	5.265597
-7.60048	-2.84E-10	5.290118	0.1000043	8.0959E-05	5.290118
-7.80047	-3.07E-10	5.314713	0.1000045	8.04509E-05	5.314713
-8.00048	-2.736E-10	5.339314	0.1000043	7.9941E-05	5.339314
-8.20048	-2.816E-10	5.363922	0.1000045	7.94286E-05	5.363922
-8.40049	-3.102E-10	5.38845	0.1000041	7.89145E-05	5.38845
-8.60049	-2.993E-10	5.413013	0.1000049	7.83975E-05	5.413013
-8.80047	-3.007E-10	5.437568	0.1000046	7.78803E-05	5.437568
-9.00048	-3.07E-10	5.462085	0.1000051	7.73601E-05	5.462085
-9.20047	-3.043E-10	5.486604	0.1000056	7.68369E-05	5.486604
-9.40048	-3.079E-10	5.511105	0.1000036	7.63111E-05	5.511105
-9.60048	-3.205E-10	5.53563	0.1000041	7.57858E-05	5.53563
-9.80049	-3.222E-10	5.560155	0.1000052	7.52609E-05	5.560155
-10.00047	-3.082E-10	5.584677	0.100005	7.4732E-05	5.584677
-10.20048	-2.771E-10	5.641874	0.1000054	7.42092E-05	5.641874
-10.40046	-2.776E-10	5.666404	0.1000057	7.36762E-05	5.666404
-10.6005	-3.029E-10	5.690937	0.1000051	7.31411E-05	5.690937
-10.80046	-3.38E-10	5.715467	0.1000057	7.26012E-05	5.715467
-11.00047	-3.18E-10	5.740119	0.100005	7.20622E-05	5.740119
-11.20049	-3.08E-10	5.764632	0.1000049	7.1519E-05	5.764632
-11.4005	-3.315E-10	5.789174	0.1000049	7.09736E-05	5.789174
-11.60047	-2.273E-10	5.813672	0.1000044	7.04262E-05	5.813672
-11.80046	-3.165E-10	5.838221	0.1000052	6.98765E-05	5.838221
-12.00048	-3.163E-10	5.862828	0.1000054	6.93244E-05	5.862828
#scan	iMeasureCycle=2	iMux=0	time=279.781	N=222	LocalTime=22/06/2023 09:25:31
#VGate(V)	IGate(A)	time(s)	VDrain(V)	IDrain(A)	time(s)
-12.00048	-8.14E-11	279.788482	0.1000055	6.94198E-05	279.788482
-11.80049	-4.8E-12	279.813437	0.100006	6.99743E-05	279.813437
-11.60049	-2.31E-11	279.839311	0.1000056	7.05272E-05	279.839311
-11.40049	2.04E-11	279.863826	0.1000048	7.10757E-05	279.863826
-11.20048	4.44E-11	279.888364	0.1000056	7.16249E-05	279.888364
-11.00048	4.53E-11	279.912963	0.1000052	7.2168E-05	279.912963
-10.80047	6.14E-11	279.937487	0.1000062	7.27125E-05	279.937487
-10.60049	6.47E-11	279.962001	0.1000048	7.32535E-05	279.962001
-10.40048	6.76E-11	279.986526	0.1000045	7.37907E-05	279.986526
-10.20049	9.03E-11	280.011053	0.1000047	7.43278E-05	280.011053
-10.00045	1.079E-10	280.035647	0.1000058	7.48628E-05	280.035647
-9.80048	9.39E-11	280.060181	0.1000057	7.5395E-05	280.060181
-9.60051	9.03E-11	280.084705	0.1000051	7.5924E-05	280.084705
-9.40049	1.157E-10	280.109285	0.1000049	7.64532E-05	280.109285
-9.20049	1.458E-10	280.133798	0.1000053	7.69794E-05	280.133798
-9.00051	1.221E-10	280.15832	0.1000044	7.74987E-05	280.15832
-8.80049	1.084E-10	280.182835	0.1000052	7.80166E-05	280.182835
-8.6005	1.531E-10	280.207359	0.1000044	7.85324E-05	280.207359
-8.40048	1.531E-10	280.231882	0.1000055	7.90461E-05	280.231882
-8.20049	1.331E-10	280.256402	0.1000053	7.95564E-05	280.256402
-8.00047	1.628E-10	280.280919	0.1000051	8.00664E-05	280.280919
-7.80048	1.532E-10	280.30556	0.1000051	8.05732E-05	280.30556
-7.60052	1.376E-10	280.352318	0.1000048	8.10762E-05	280.352318
-7.40051	1.48E-10	280.376858	0.1000041	8.15802E-05	280.376858
-7.20051	1.471E-10	280.401386	0.1000045	8.20824E-05	280.401386
-7.00049	1.723E-10	280.425918	0.100005	8.25836E-05	280.425918
-6.80048	3.432E-10	280.450493	0.1000056	8.30843E-05	280.450493
-6.60049	1.966E-10	280.475021	0.1000057	8.35815E-05	280.475021
-6.40049	1.811E-10	280.499542	0.1000041	8.40758E-05	280.499542
-6.20048	1.862E-10	280.524076	0.1000053	8.45701E-05	280.524076
-6.00047	2.058E-10	280.548589	0.1000055	8.50627E-05	280.548589
-5.80049	2.083E-10	280.573111	0.1000054	8.55527E-05	280.573111
-5.60049	2.089E-10	280.597622	0.1000047	8.60421E-05	280.597622
-5.40049	2.007E-10	280.622148	0.1000048	8.65302E-05	280.622148
-5.20047	2.059E-10	280.646654	0.1000051	8.70154E-05	280.646654
-5.00049	2.24E-10	280.671159	0.1000048	8.74999E-05	280.671159
-4.8005	2.267E-10	280.695674	0.1000048	8.79822E-05	280.695674
-4.60048	1.023E-10	280.720189	0.1000049	8.84639E-05	280.720189
-4.40048	1.923E-10	280.7447	0.1000043	8.89417E-05	280.7447
-4.20051	2.336E-10	280.769273	0.1000047	8.94222E-05	280.769273
-4.0005	2.42E-10	280.793796	0.1000049	8.98999E-05	280.793796
-3.80047	1.682E-10	280.853892	0.1000042	9.03727E-05	280.853892
-3.60049	2.171E-10	280.878407	0.1000049	9.08491E-05	280.878407
-3.40051	2.098E-10	280.902932	0.1000043	9.13231E-05	280.902932
-3.20049	2.331E-10	280.927463	0.1000041	9.17972E-05	280.927463
-3.00049	2.358E-10	280.952024	0.1000044	9.22709E-05	280.952024
-2.80049	2.46E-10	280.976545	0.100004	9.2741E-05	280.976545
-2.60049	2.4E-10	281.001056	0.1000043	9.32122E-05	281.001056
-2.40051	2.453E-10	281.025625	0.1000031	9.36817E-05	281.025625
-2.20051	2.585E-10	281.050151	0.1000045	9.41517E-05	281.050151
-2.00049	2.733E-10	281.074663	0.1000038	9.46201E-05	281.074663
-1.80052	2.516E-10	281.099226	0.1000044	9.50904E-05	281.099226
-1.60049	2.543E-10	281.12371	0.1000039	9.55614E-05	281.12371
-1.40051	2.762E-10	281.148236	0.1000045	9.60375E-05	281.148236
-1.20051	2.796E-10	281.172757	0.1000043	9.65212E-05	281.172757
-1.00049	2.666E-10	281.197301	0.1000041	9.70123E-05	281.197301
-0.8005	2.755E-10	281.221821	0.1000032	9.75142E-05	281.221821
-0.60048	2.786E-10	281.246351	0.1000044	9.80262E-05	281.246351
-0.40051	2.882E-10	281.270876	0.1000042	9.85444E-05	281.270876
-0.20051	2.862E-10	281.295402	0.1000031	9.9068E-05	281.295402
-0.00051	2.459E-10	281.355532	0.1000035	9.95931E-05	281.355532
0.1995	2.594E-10	281.380046	0.1000043	0.0001001269	281.380046
0.39952	2.696E-10	281.404575	0.1000044	0.0001006625	281.404575
0.59952	3.024E-10	281.429191	0.1000044	0.0001011994	281.429191
0.79949	3.026E-10	281.453778	0.1000041	0.0001017366	281.453778
0.9995	2.89E-10	281.4783	0.1000038	0.0001022741	281.4783
1.1995	2.882E-10	281.502849	0.1000034	0.0001028139	281.502849
1.39949	3.132E-10	281.527378	0.1000037	0.000103357	281.527378
1.59949	3.212E-10	281.551916	0.1000037	0.0001039009	281.551916
1.7995	3.035E-10	281.57644	0.1000039	0.000104445	281.57644
1.9995	2.441E-10	281.62345	0.1000002	0.000105067	281.62345
2.1995	3.027E-10	281.647993	0.1000001	0.000105614	281.647993
2.3995	3.314E-10	281.672507	0.0999999	0.000106162	281.672507
2.59951	3.134E-10	281.697024	0.1	0.00010671	281.697024
2.79951	3.081E-10	281.721536	0.0999999	0.000107257	281.721536
2.99951	3.373E-10	281.746054	0.0999999	0.000107809	281.746054
3.19947	3.322E-10	281.770623	0.0999999	0.000108359	281.770623
3.39951	3.27E-10	281.795145	0.1	0.000108907	281.795145
3.59948	3.669E-10	281.858443	0.1000001	0.000109449	281.858443
3.79949	3.18E-10	281.883012	0.0999998	0.000109999	281.883012
3.9995	3.342E-10	281.907521	0.1	0.000110546	281.907521
4.19949	3.606E-10	281.932056	0.0999998	0.000111094	281.932056
4.3995	3.397E-10	281.956624	0.0999999	0.000111642	281.956624
4.59953	3.431E-10	281.981147	0.1000002	0.000112182	281.981147
4.79948	3.517E-10	282.005662	0.1	0.000112722	282.005662
4.9995	3.497E-10	282.030214	0.0999999	0.000113262	282.030214
5.19991	6.28E-11	282.054737	0.1000001	0.000113798	282.054737
5.39939	3.452E-10	282.079268	0.0999998	0.00011433	282.079268
5.59952	3.357E-10	282.103828	0.1000001	0.000114862	282.103828
5.79954	3.607E-10	282.128351	0.1	0.000115389	282.128351
5.99954	3.855E-10	282.152855	0.1000001	0.000115912	282.152855
6.19955	3.573E-10	282.177381	0.1000002	0.000116435	282.177381
6.39954	3.478E-10	282.201882	0.1	0.000116953	282.201882
6.59952	3.75E-10	282.226403	0.0999999	0.000117471	282.226403
6.79955	3.96E-10	282.25092	0.0999999	0.000117983	282.25092
6.99953	3.76E-10	282.275439	0.0999999	0.000118492	282.275439
7.19954	3.759E-10	282.299951	0.1	0.000119001	282.299951
7.39953	3.355E-10	282.354612	0.0999997	0.000119501	282.354612
7.59954	3.643E-10	282.379125	0.0999999	0.000120003	282.379125
7.79955	3.693E-10	282.40363	0.1000001	0.000120502	282.40363
7.99955	3.775E-10	282.428148	0.1	0.000120998	282.428148
8.19955	4.143E-10	282.452728	0.1	0.000121492	282.452728
8.39952	3.909E-10	282.477248	0.0999997	0.000121981	282.477248
8.59955	4.672E-10	282.501777	0.0999999	0.000122467	282.501777
8.7995	3.934E-10	282.526288	0.0999996	0.000122953	282.526288
8.99948	4.21E-10	282.550828	0.1	0.000123433	282.550828
9.19949	3.927E-10	282.57534	0.0999998	0.000123914	282.57534
9.39948	3.963E-10	282.599864	0.1000001	0.000124395	282.599864
9.59949	4.139E-10	282.624372	0.1	0.000124875	282.624372
9.7995	4.218E-10	282.648899	0.1	0.000125351	282.648899
9.99948	4.209E-10	282.673413	0.1	0.000125827	282.673413
9.9995	3.646E-10	282.696777	0.1000002	0.000125826	282.696777
9.7995	2.727E-10	282.721289	0.1000001	0.000125356	282.721289
9.5995	2.351E-10	282.745822	0.0999999	0.000124883	282.745822
9.39951	2.111E-10	282.770357	0.1000001	0.000124404	282.770357
9.1995	1.991E-10	282.794879	0.0999999	0.000123924	282.794879
8.9995	1.889E-10	282.844325	0.1000001	0.000123441	282.844325
8.79953	1.669E-10	282.868906	0.0999999	0.000122956	282.868906
8.5995	1.441E-10	282.893476	0.0999998	0.000122465	282.893476
8.3995	1.029E-10	282.917984	0.1	0.000121971	282.917984
8.19951	1.147E-10	282.944432	0.1	0.000121473	282.944432
7.99951	9.4E-11	282.968951	0.1	0.000120969	282.968951
7.79949	1.046E-10	282.993457	0.0999998	0.000120467	282.993457
7.59953	6.18E-11	283.017966	0.0999999	0.000119961	283.017966
7.39951	3.74E-11	283.04249	0.1	0.00011945	283.04249
7.1995	6.14E-11	283.067007	0.0999999	0.00011894	283.067007
6.99948	5E-11	283.091518	0.1	0.000118429	283.091518
6.79952	2.23E-11	283.116087	0.0999999	0.000117913	283.116087
6.59951	1.42E-11	283.140615	0.1	0.000117393	283.140615
6.3995	1.16E-11	283.165125	0.1	0.000116872	283.165125
6.1995	6.5E-12	283.189626	0.1000001	0.000116347	283.189626
5.99951	-4.7E-12	283.214125	0.0999999	0.00011582	283.214125
5.79951	-8.9E-12	283.238645	0.1	0.000115292	283.238645
5.5995	7.59E-11	283.263157	0.1000001	0.00011476	283.263157
5.39949	-1.528E-10	283.287666	0.1	0.000114226	283.287666
5.19949	-1.33E-11	283.312202	0.0999999	0.000113687	283.312202
4.99951	6.5E-12	283.357606	0.1	0.000113147	283.357606
4.7995	-4.11E-11	283.382116	0.1	0.000112606	283.382116
4.59949	-4.35E-11	283.406646	0.1000002	0.000112063	283.406646
4.3995	-4.21E-11	283.431173	0.1000001	0.000111517	283.431173
4.19949	-3.66E-11	283.45575	0.1	0.00011097	283.45575
3.99951	-7.17E-11	283.480247	0.0999999	0.000110419	283.480247
3.79949	-8.16E-11	283.504789	0.1000001	0.000109868	283.504789
3.59952	-5.63E-11	283.529301	0.0999999	0.000109316	283.529301
3.3995	-6.65E-11	283.553855	0.1000002	0.000108764	283.553855
3.19949	-8.93E-11	283.578379	0.0999999	0.000108212	283.578379
2.99948	-1.017E-10	283.60292	0.1	0.000107659	283.60292
2.79951	-8.86E-11	283.627434	0.1	0.000107106	283.627434
2.5995	-7.96E-11	283.651964	0.0999999	0.000106556	283.651964
2.3995	-1.18E-10	283.676479	0.1000001	0.000106005	283.676479
2.1995	-1.242E-10	283.700997	0.1	0.000105454	283.700997
1.9995	-1.055E-10	283.725513	0.1000001	0.000104907	283.725513
1.7995	-1.234E-10	283.750026	0.1000001	0.000104358	283.750026
1.5995	-1.282E-10	283.774589	0.0999999	0.00010381	283.774589
1.39953	-1.284E-10	283.799106	0.1	0.000103266	283.799106
1.19951	-1.088E-10	283.841601	0.0999999	0.000102724	283.841601
0.99952	-8.66E-11	283.880114	0.0999999	0.000102186	283.880114
0.79949	-1.299E-10	283.904642	0.0999998	0.000101646	283.904642
0.59952	-1.27E-10	283.929252	0.1000001	0.000101108	283.929252
0.39951	-1.313E-10	283.953779	0.1000001	0.000100569	283.953779
0.1995	-1.517E-10	283.978386	0.1	0.000100034	283.978386
-0.0005	-1.743E-10	284.002897	0.1000001	9.9501E-05	284.002897
-0.2005	-1.532E-10	284.027436	0.0999998	9.8972E-05	284.027436
-0.40048	-1.339E-10	284.052033	0.1	9.845E-05	284.052033
-0.60048	-1.773E-10	284.076705	0.1000001	9.7933E-05	284.076705
-0.80051	-2.036E-10	284.101236	0.1	9.7427E-05	284.101236
-1.0005	-1.577E-10	284.125812	0.1000001	9.6931E-05	284.125812
-1.20049	-1.677E-10	284.150355	0.1	9.6444E-05	284.150355
-1.40049	-1.947E-10	284.174869	0.1000001	9.5964E-05	284.174869
-1.60049	-1.924E-10	284.199407	0.1000001	9.5493E-05	284.199407
-1.80051	-1.949E-10	284.223925	0.1	9.5024E-05	284.223925
-2.00049	-1.913E-10	284.248452	0.0999998	9.4556E-05	284.248452
-2.20049	-1.926E-10	284.272962	0.0999999	9.4089E-05	284.272962
-2.4005	-2.084E-10	284.297486	0.1	9.3621E-05	284.297486
-2.60049	-2.265E-10	284.322096	0.1	9.3152E-05	284.322096
-2.8005	-1.762E-10	284.365864	0.0999999	9.2684E-05	284.365864
-3.0005	-1.878E-10	284.390385	0.1000001	9.2213E-05	284.390385
-3.20047	-2.019E-10	284.414937	0.1000002	9.1742E-05	284.414937
-3.4005	-2.271E-10	284.439498	0.1	9.1269E-05	284.439498
-3.60048	-2.38E-10	284.464068	0.1000001	9.0794E-05	284.464068
-3.80048	-2.176E-10	284.488592	0.1	9.032E-05	284.488592
-4.00049	-2.135E-10	284.513125	0.0999997	8.9843E-05	284.513125
-4.20049	-2.451E-10	284.537649	0.0999999	8.9366E-05	284.537649
-4.40051	-2.581E-10	284.562179	0.0999998	8.8887E-05	284.562179
-4.60048	-2.261E-10	284.586709	0.1000001	8.8407E-05	284.586709
-4.80049	-2.277E-10	284.611231	0.0999999	8.7925E-05	284.611231
-5.0005	-2.636E-10	284.635749	0.1000002	8.7441E-05	284.635749
-5.20048	-2.446E-10	284.663584	0.1000046	8.68768E-05	284.663584
-5.40048	-1.736E-10	284.688116	0.1000051	8.63931E-05	284.688116
-5.60047	-2.22E-10	284.712629	0.1000057	8.59055E-05	284.712629
-5.80049	-2.617E-10	284.737139	0.1000046	8.54146E-05	284.737139
-6.00049	-2.796E-10	284.761659	0.1000046	8.4923E-05	284.761659
-6.20048	-3.924E-10	284.786237	0.100005	8.44304E-05	284.786237
-6.40047	-2.666E-10	284.810765	0.1000054	8.39357E-05	284.810765
-6.60049	-2.103E-10	284.869883	0.1000053	8.34428E-05	284.869883
-6.80049	-2.58E-10	284.894422	0.1000046	8.29423E-05	284.894422
-7.0005	-2.73E-10	284.918969	0.1000058	8.24432E-05	284.918969
-7.20048	-2.871E-10	284.943482	0.100006	8.19404E-05	284.943482
-7.40049	-2.76E-10	284.968129	0.1000056	8.14367E-05	284.968129
-7.60048	-2.723E-10	284.992645	0.1000049	8.09307E-05	284.992645
-7.80046	-3.121E-10	285.017146	0.1000057	8.04231E-05	285.017146
-8.00049	-3.081E-10	285.041663	0.1000059	7.99138E-05	285.041663
-8.2005	-2.859E-10	285.066202	0.1000052	7.93999E-05	285.066202
-8.40049	-2.925E-10	285.090721	0.1000051	7.88863E-05	285.090721
-8.60048	-3.159E-10	285.1153	0.1000057	7.83703E-05	285.1153
-8.80047	-3.2E-10	285.139808	0.1000054	7.78512E-05	285.139808
-9.00049	-3.161E-10	285.164341	0.1000047	7.73309E-05	285.164341
-9.20049	-3.152E-10	285.18886	0.1000054	7.68087E-05	285.18886
-9.40047	-3.148E-10	285.213391	0.1000053	7.62829E-05	285.213391
-9.60048	-3.185E-10	285.237903	0.1000055	7.57569E-05	285.237903
-9.80048	-3.438E-10	285.262435	0.1000047	7.52315E-05	285.262435
-10.00047	-3.295E-10	285.286953	0.100006	7.47044E-05	285.286953
-10.20048	-3.047E-10	285.311487	0.1000052	7.4173E-05	285.311487
-10.40047	-2.885E-10	285.368812	0.1000063	7.36473E-05	285.368812
-10.60049	-3.013E-10	285.393343	0.1000056	7.31109E-05	285.393343
-10.8005	-3.314E-10	285.417886	0.1000073	7.25732E-05	285.417886
-11.00048	-3.419E-10	285.442452	0.100005	7.20317E-05	285.442452
-11.20049	-3.292E-10	285.467042	0.1000057	7.14884E-05	285.467042
-11.4005	-4.307E-10	285.491587	0.1000064	7.09434E-05	285.491587
-11.60043	-3.196E-10	285.516116	0.1000091	7.03983E-05	285.516116
-11.80045	-2.738E-10	285.540621	0.1000076	6.98469E-05	285.540621
-12.00049	-3.531E-10	285.56515	0.1000051	6.92927E-05	285.56515
#scan	iMeasureCycle=3	iMux=0	time=319.859	N=222	LocalTime=22/06/2023 09:26:11
#VGate(V)	IGate(A)	time(s)	VDrain(V)	IDrain(A)	time(s)
-12.00048	-9.01E-11	319.866797	0.1000063	6.93921E-05	319.866797
-11.80048	1.43E-11	319.891759	0.1000061	6.99463E-05	319.891759
-11.60048	2.485E-10	319.917378	0.1000043	7.04993E-05	319.917378
-11.40049	4.57E-11	319.941883	0.1000065	7.105E-05	319.941883
-11.20051	4.48E-11	319.966415	0.1000061	7.15982E-05	319.966415
-11.00048	8.1E-11	319.990933	0.1000064	7.21436E-05	319.990933
-10.80047	9.82E-11	320.015472	0.1000055	7.26866E-05	320.015472
-10.60047	7.25E-11	320.040068	0.1000052	7.32273E-05	320.040068
-10.40047	8.32E-11	320.0646	0.1000059	7.37655E-05	320.0646
-10.20048	1.139E-10	320.08913	0.1000064	7.43022E-05	320.08913
-10.00049	1.111E-10	320.113676	0.1000058	7.4837E-05	320.113676
-9.80047	1.035E-10	320.138195	0.1000063	7.53686E-05	320.138195
-9.60051	1.223E-10	320.16273	0.1000064	7.58987E-05	320.16273
-9.40049	1.192E-10	320.187302	0.1000067	7.64287E-05	320.187302
-9.20049	1.292E-10	320.211831	0.1000054	7.69543E-05	320.211831
-9.00047	1.443E-10	320.236411	0.1000053	7.74739E-05	320.236411
-8.80049	1.341E-10	320.260927	0.1000069	7.79937E-05	320.260927
-8.60051	1.334E-10	320.285457	0.1000061	7.85079E-05	320.285457
-8.40049	1.549E-10	320.309974	0.1000065	7.90214E-05	320.309974
-8.20048	1.75E-10	320.33449	0.100006	7.95328E-05	320.33449
-8.00047	1.626E-10	320.359014	0.1000055	8.00419E-05	320.359014
-7.80049	2.93E-11	320.383624	0.1000046	8.05469E-05	320.383624
-7.60049	1.218E-10	320.430517	0.1000053	8.10512E-05	320.430517
-7.40051	1.646E-10	320.45506	0.1000052	8.1556E-05	320.45506
-7.20049	1.664E-10	320.479579	0.100005	8.20573E-05	320.479579
-7.00049	1.524E-10	320.504135	0.1000047	8.25597E-05	320.504135
-6.80048	1.641E-10	320.528705	0.1000055	8.30591E-05	320.528705
-6.60047	2.031E-10	320.553225	0.1000053	8.35559E-05	320.553225
-6.40049	1.929E-10	320.577801	0.100005	8.40511E-05	320.577801
-6.20048	1.742E-10	320.602338	0.1000039	8.4544E-05	320.602338
-6.00049	1.865E-10	320.626862	0.1000044	8.50378E-05	320.626862
-5.80049	2.178E-10	320.651378	0.1000045	8.55278E-05	320.651378
-5.6005	2.12E-10	320.675901	0.1000048	8.60183E-05	320.675901
-5.40048	1.94E-10	320.70041	0.1000041	8.65049E-05	320.70041
-5.20049	1.955E-10	320.724923	0.1000048	8.699E-05	320.724923
-5.0005	2.232E-10	320.749438	0.1000049	8.7474E-05	320.749438
-4.8005	2.299E-10	320.773941	0.1000046	8.79566E-05	320.773941
-4.6005	2.174E-10	320.798473	0.100004	8.84381E-05	320.798473
-4.4005	2.307E-10	320.822996	0.1000047	8.89182E-05	320.822996
-4.2005	2.267E-10	320.847566	0.100004	8.93965E-05	320.847566
-4.00049	2.277E-10	320.872129	0.1000048	8.98746E-05	320.872129
-3.80049	1.904E-10	320.932147	0.1000055	9.03491E-05	320.932147
-3.6005	2.309E-10	320.956672	0.1000043	9.08245E-05	320.956672
-3.4005	2.143E-10	320.981188	0.100005	9.12996E-05	320.981188
-3.20049	2.237E-10	321.005704	0.1000049	9.17725E-05	321.005704
-3.0005	2.445E-10	321.030273	0.1000042	9.2246E-05	321.030273
-2.80049	2.461E-10	321.054795	0.1000044	9.27163E-05	321.054795
-2.60048	2.454E-10	321.079321	0.100005	9.31882E-05	321.079321
-2.4005	2.46E-10	321.1039	0.1000048	9.36573E-05	321.1039
-2.2005	2.459E-10	321.128443	0.1000035	9.41254E-05	321.128443
-2.00051	2.606E-10	321.152966	0.1000046	9.45947E-05	321.152966
-1.8005	2.696E-10	321.177553	0.1000037	9.50637E-05	321.177553
-1.60048	2.603E-10	321.202072	0.1000038	9.55363E-05	321.202072
-1.4005	2.66E-10	321.226607	0.1000041	9.60112E-05	321.226607
-1.20049	2.783E-10	321.25112	0.100004	9.64959E-05	321.25112
-1.00049	3.012E-10	321.27565	0.1000042	9.69882E-05	321.27565
-0.80051	2.743E-10	321.300255	0.1000044	9.74891E-05	321.300255
-0.60049	3.412E-10	321.324801	0.1000036	9.80002E-05	321.324801
-0.4005	3.309E-10	321.349308	0.1000043	9.85198E-05	321.349308
-0.20049	3.203E-10	321.373863	0.1000042	9.90444E-05	321.373863
-0.00049	2.57E-10	321.43379	0.1000046	9.95692E-05	321.43379
0.19951	2.807E-10	321.458312	0.1000055	0.0001001035	321.458312
0.39949	2.899E-10	321.482854	0.1000043	0.0001006378	321.482854
0.59952	2.885E-10	321.507371	0.1000039	0.0001011739	321.507371
0.79949	2.933E-10	321.531946	0.1000042	0.0001017119	321.531946
0.99951	3.236E-10	321.556453	0.1000046	0.0001022498	321.556453
1.19949	2.975E-10	321.580981	0.1000049	0.0001027914	321.580981
1.3995	2.928E-10	321.605496	0.1000044	0.0001033334	321.605496
1.5995	3.209E-10	321.630029	0.1000043	0.000103877	321.630029
1.79951	3.347E-10	321.654535	0.1000044	0.0001044211	321.654535
1.99949	2.822E-10	321.684134	0.0999998	0.000105044	321.684134
2.19951	3.206E-10	321.708657	0.1000001	0.00010559	321.708657
2.3995	3.304E-10	321.73317	0.1000001	0.000106138	321.73317
2.59951	3.33E-10	321.757679	0.1000002	0.000106686	321.757679
2.7995	3.273E-10	321.782203	0.1	0.000107237	321.782203
2.99947	1.844E-10	321.806727	0.0999998	0.000107787	321.806727
3.1995	3.199E-10	321.831256	0.1	0.000108335	321.831256
3.39949	3.475E-10	321.855835	0.1000002	0.000108885	321.855835
3.59951	3.338E-10	321.880404	0.1000001	0.000109434	321.880404
3.79949	2.797E-10	321.938204	0.1	0.000109976	321.938204
3.99949	3.163E-10	321.962735	0.1	0.000110525	321.962735
4.19949	3.192E-10	321.987253	0.1	0.000111072	321.987253
4.39949	3.421E-10	322.011783	0.1	0.000111618	322.011783
4.5995	3.568E-10	322.036366	0.1000002	0.000112161	322.036366
4.79949	3.404E-10	322.060962	0.0999999	0.000112701	322.060962
4.9995	3.286E-10	322.085509	0.1000002	0.000113242	322.085509
5.19948	3.65E-10	322.110028	0.1	0.000113776	322.110028
5.3995	3.741E-10	322.134554	0.1	0.000114309	322.134554
5.59951	3.503E-10	322.159076	0.1	0.00011484	322.159076
5.7995	3.336E-10	322.183655	0.0999999	0.000115367	322.183655
5.99949	3.813E-10	322.208132	0.0999998	0.000115893	322.208132
6.1995	3.794E-10	322.232655	0.0999999	0.000116415	322.232655
6.39948	3.668E-10	322.257175	0.1000004	0.000116933	322.257175
6.59951	3.801E-10	322.281694	0.1000001	0.000117449	322.281694
6.79948	3.742E-10	322.306211	0.0999999	0.000117963	322.306211
6.99949	3.797E-10	322.330746	0.0999999	0.000118475	322.330746
7.19949	4.024E-10	322.355249	0.0999999	0.000118983	322.355249
7.39949	3.886E-10	322.379782	0.0999999	0.000119486	322.379782
7.59951	3.273E-10	322.436992	0.1000002	0.000119984	322.436992
7.79951	3.71E-10	322.461509	0.0999999	0.000120482	322.461509
7.99949	3.707E-10	322.486046	0.1	0.000120979	322.486046
8.19948	3.807E-10	322.510617	0.1000001	0.000121473	322.510617
8.39948	4.032E-10	322.535204	0.1000002	0.000121963	322.535204
8.5995	3.854E-10	322.559715	0.1	0.000122448	322.559715
8.79951	3.65E-10	322.584228	0.1000002	0.000122935	322.584228
8.99949	4.059E-10	322.608746	0.0999997	0.000123417	322.608746
9.19949	4.229E-10	322.633257	0.1	0.000123897	322.633257
9.3995	4.001E-10	322.657769	0.1	0.000124382	322.657769
9.59951	3.963E-10	322.682299	0.0999999	0.000124861	322.682299
9.7995	4.204E-10	322.706812	0.0999998	0.000125334	322.706812
9.99949	4.755E-10	322.731332	0.1	0.000125811	322.731332
9.99948	4.578E-10	322.75468	0.1	0.00012581	322.75468
9.79953	2.934E-10	322.779205	0.1000001	0.000125338	322.779205
9.5995	2.363E-10	322.803722	0.1000001	0.000124867	322.803722
9.39949	2.15E-10	322.828333	0.1000001	0.000124388	322.828333
9.19951	1.969E-10	322.852903	0.0999999	0.000123909	322.852903
8.99948	1.797E-10	322.877437	0.1	0.000123428	322.877437
8.79952	1.932E-10	322.938787	0.1000001	0.000122942	322.938787
8.5995	1.195E-10	322.963318	0.1	0.000122447	322.963318
8.39951	1.288E-10	322.987834	0.0999997	0.000121953	322.987834
8.1995	1.271E-10	323.012346	0.1000001	0.000121454	323.012346
7.99951	9.8E-11	323.036897	0.1	0.000120952	323.036897
7.79982	-3.78E-11	323.061426	0.1	0.00012045	323.061426
7.5994	8.12E-11	323.085971	0.1	0.00011994	323.085971
7.3995	5.01E-11	323.110496	0.1	0.000119435	323.110496
7.19956	5.46E-11	323.135026	0.1000002	0.000118922	323.135026
6.99957	3.79E-11	323.159538	0.1	0.000118409	323.159538
6.79957	9.3E-12	323.184102	0.0999999	0.000117893	323.184102
6.59955	1.304E-10	323.208627	0.0999999	0.000117375	323.208627
6.39951	-3.4E-12	323.2331	0.0999998	0.000116854	323.2331
6.19951	1E-11	323.257624	0.0999999	0.000116332	323.257624
5.99951	-1.25E-11	323.282131	0.1	0.000115805	323.282131
5.7995	-1.9E-11	323.306666	0.1	0.000115274	323.306666
5.59951	-4.5E-12	323.33119	0.1	0.000114745	323.33119
5.39948	-1.31E-11	323.355717	0.0999999	0.000114209	323.355717
5.1995	-4.06E-11	323.380253	0.1	0.000113671	323.380253
4.99948	1.3E-11	323.436308	0.1	0.00011313	323.436308
4.79952	-3.91E-11	323.460846	0.0999998	0.000112589	323.460846
4.59951	-3.5E-11	323.485356	0.0999999	0.000112044	323.485356
4.3995	-3.81E-11	323.509892	0.1	0.000111498	323.509892
4.1995	-4.14E-11	323.534465	0.1	0.000110948	323.534465
3.99952	-6.74E-11	323.558994	0.0999999	0.0001104	323.558994
3.7995	-7.29E-11	323.583518	0.1000001	0.00010985	323.583518
3.59951	-7.26E-11	323.608047	0.1000001	0.000109297	323.608047
3.39949	-7.06E-11	323.632552	0.0999999	0.000108747	323.632552
3.1995	-8.3E-11	323.657083	0.1	0.000108195	323.657083
2.9995	-9.13E-11	323.681581	0.1	0.00010764	323.681581
2.79948	-1.013E-10	323.706122	0.0999999	0.000107089	323.706122
2.59952	-9.15E-11	323.730639	0.0999999	0.000106538	323.730639
2.3995	-8.91E-11	323.755176	0.1000002	0.000105988	323.755176
2.19953	-1.212E-10	323.779691	0.1000001	0.000105436	323.779691
1.99952	-1.375E-10	323.80424	0.1000001	0.000104886	323.80424
1.79952	-1.038E-10	323.828749	0.0999998	0.00010434	323.828749
1.59952	-1.116E-10	323.853319	0.1	0.000103794	323.853319
1.3995	-1.367E-10	323.877842	0.0999998	0.000103251	323.877842
1.19951	-8.02E-11	323.939858	0.0999998	0.00010271	323.939858
0.9995	-1.27E-10	323.964439	0.0999999	0.000102169	323.964439
0.79949	-1.236E-10	323.988966	0.1	0.00010163	323.988966
0.59951	-1.144E-10	324.013496	0.1	0.000101089	324.013496
0.39951	-1.44E-10	324.03806	0.1	0.000100553	324.03806
0.19949	-1.533E-10	324.062666	0.0999998	0.000100017	324.062666
-0.00049	-1.542E-10	324.087187	0.0999999	9.9485E-05	324.087187
-0.20048	-1.638E-10	324.111708	0.1	9.8955E-05	324.111708
-0.40048	-1.438E-10	324.136227	0.0999998	9.8434E-05	324.136227
-0.60048	-8.67E-11	324.160754	0.1	9.7919E-05	324.160754
-0.80051	-1.756E-10	324.185325	0.1000001	9.7413E-05	324.185325
-1.0005	-1.597E-10	324.209845	0.0999999	9.6917E-05	324.209845
-1.20049	-1.476E-10	324.234367	0.1	9.643E-05	324.234367
-1.40049	-1.91E-10	324.258891	0.0999999	9.595E-05	324.258891
-1.60048	-2.174E-10	324.283404	0.0999999	9.5478E-05	324.283404
-1.80051	-1.852E-10	324.307924	0.1	9.501E-05	324.307924
-2.00049	-1.734E-10	324.332532	0.0999999	9.4542E-05	324.332532
-2.2005	-3.216E-10	324.357039	0.0999999	9.4074E-05	324.357039
-2.40048	-2.345E-10	324.381605	0.1	9.3607E-05	324.381605
-2.60051	-1.72E-10	324.4436	0.0999998	9.3142E-05	324.4436
-2.80048	-1.839E-10	324.468127	0.0999999	9.2671E-05	324.468127
-3.0005	-1.928E-10	324.492685	0.1000002	9.2201E-05	324.492685
-3.20051	-2.067E-10	324.517245	0.1000001	9.1731E-05	324.517245
-3.40049	-2.188E-10	324.541824	0.1	9.1256E-05	324.541824
-3.60049	-2.252E-10	324.566354	0.1000001	9.0784E-05	324.566354
-3.80047	-2.291E-10	324.590881	0.1	9.0309E-05	324.590881
-4.0005	-2.071E-10	324.615386	0.0999996	8.9832E-05	324.615386
-4.20048	-2.427E-10	324.63991	0.0999999	8.9356E-05	324.63991
-4.40049	-2.502E-10	324.664429	0.1000001	8.8876E-05	324.664429
-4.60047	-2.321E-10	324.688972	0.1000001	8.8397E-05	324.688972
-4.80049	-2.281E-10	324.716816	0.100006	8.78374E-05	324.716816
-5.00049	-2.359E-10	324.741342	0.1000047	8.73548E-05	324.741342
-5.2005	-2.525E-10	324.765865	0.100005	8.68703E-05	324.765865
-5.40051	-2.556E-10	324.790384	0.1000063	8.63867E-05	324.790384
-5.60048	-2.384E-10	324.814883	0.1000057	8.58977E-05	324.814883
-5.8005	-2.683E-10	324.83947	0.1000052	8.5408E-05	324.83947
-6.00049	-2.805E-10	324.864039	0.1000057	8.4918E-05	324.864039
-6.20048	-2.61E-10	324.888574	0.1000041	8.44233E-05	324.888574
-6.40048	-2.078E-10	324.947865	0.100006	8.39327E-05	324.947865
-6.60049	-2.403E-10	324.972416	0.1000061	8.3436E-05	324.972416
-6.80048	-2.519E-10	324.996966	0.1000049	8.29385E-05	324.996966
-7.00049	-2.75E-10	325.021497	0.1000054	8.24379E-05	325.021497
-7.20047	-2.785E-10	325.046052	0.1000067	8.19353E-05	325.046052
-7.40048	-2.708E-10	325.07058	0.1000062	8.14318E-05	325.07058
-7.6005	-2.627E-10	325.095095	0.100005	8.09258E-05	325.095095
-7.80047	-2.923E-10	325.119664	0.1000055	8.04186E-05	325.119664
-8.00049	-3.052E-10	325.144192	0.1000057	7.99086E-05	325.144192
-8.20048	-2.804E-10	325.168735	0.1000053	7.93965E-05	325.168735
-8.40049	-2.624E-10	325.193315	0.1000061	7.8883E-05	325.193315
-8.60051	-3.083E-10	325.217833	0.1000047	7.83648E-05	325.217833
-8.80048	-3.302E-10	325.242343	0.1000064	7.78483E-05	325.242343
-9.0005	-2.828E-10	325.266861	0.1000057	7.73273E-05	325.266861
-9.20047	-2.961E-10	325.291374	0.1000062	7.68054E-05	325.291374
-9.40049	-3.206E-10	325.315906	0.1000061	7.628E-05	325.315906
-9.60047	-3.1E-10	325.340419	0.1000057	7.57534E-05	325.340419
-9.80049	-3.205E-10	325.364949	0.1000062	7.52295E-05	325.364949
-10.00047	-3.163E-10	325.389479	0.1000056	7.46996E-05	325.389479
-10.2005	-2.624E-10	325.446894	0.1000053	7.41754E-05	325.446894
-10.40047	-2.917E-10	325.471362	0.1000065	7.36444E-05	325.471362
-10.60049	-3.185E-10	325.495889	0.1000061	7.31086E-05	325.495889
-10.8005	-3.118E-10	325.520427	0.1000063	7.25694E-05	325.520427
-11.00048	-3.263E-10	325.545021	0.1000047	7.20296E-05	325.545021
-11.20048	-1.833E-10	325.569538	0.1000069	7.14882E-05	325.569538
-11.40048	-2.964E-10	325.59407	0.1000075	7.09424E-05	325.59407
-11.60047	-3.322E-10	325.618584	0.100006	7.0393E-05	325.618584
-11.8005	-3.544E-10	325.643101	0.1000067	6.98441E-05	325.643101
-12.00048	-3.283E-10	325.667617	0.1000069	6.92925E-05	325.667617
