#scan	iMeasureCycle=1	iMux=0	time=0.037	N=222	LocalTime=22/06/2023 07:08:51
#VGate(V)	IGate(A)	time(s)	VDrain(V)	IDrain(A)	time(s)
-12.0005	-3.0828E-09	0.062964	0.1000066	6.55887E-05	0.062964
-11.80049	-2.9979E-09	0.087837	0.1000054	6.61573E-05	0.087837
-11.60049	-1.213E-09	0.112363	0.100006	6.67256E-05	0.112363
-11.40052	-4.9E-10	0.136865	0.100006	6.72896E-05	0.136865
-11.20052	-3.211E-10	0.161438	0.1000064	6.78535E-05	0.161438
-11.00049	-2.087E-10	0.185965	0.1000048	6.84121E-05	0.185965
-10.8005	-1.653E-10	0.210478	0.100006	6.897E-05	0.210478
-10.6005	-1.05E-10	0.234995	0.1000054	6.9525E-05	0.234995
-10.40049	-6.87E-11	0.259461	0.1000072	7.00779E-05	0.259461
-10.20051	-3.62E-11	0.283989	0.1000066	7.0629E-05	0.283989
-10.00048	-1E-11	0.308497	0.1000069	7.11782E-05	0.308497
-9.80049	-3.13E-11	0.333015	0.1000056	7.17237E-05	0.333015
-9.60051	-3.6E-12	0.357567	0.100006	7.2269E-05	0.357567
-9.40048	4.6E-11	0.382113	0.1000061	7.28118E-05	0.382113
-9.2005	4.09E-11	0.406688	0.1000055	7.33522E-05	0.406688
-9.0005	4.15E-11	0.431223	0.1000064	7.38863E-05	0.431223
-8.8005	4.62E-11	0.455734	0.1000054	7.44187E-05	0.455734
-8.60049	8.08E-11	0.480281	0.1000059	7.49485E-05	0.480281
-8.4005	9.76E-11	0.504792	0.1000053	7.54751E-05	0.504792
-8.20049	7.35E-11	0.529323	0.1000053	7.59997E-05	0.529323
-8.0005	7.95E-11	0.553827	0.1000055	7.65235E-05	0.553827
-7.80049	1.111E-10	0.578461	0.1000064	7.70458E-05	0.578461
-7.6005	7E-11	0.626088	0.1000051	7.7561E-05	0.626088
-7.4005	9.77E-11	0.650639	0.1000054	7.80811E-05	0.650639
-7.2005	9.63E-11	0.675152	0.1000058	7.85974E-05	0.675152
-7.0005	1.331E-10	0.699677	0.1000062	7.9113E-05	0.699677
-6.80048	1.507E-10	0.724253	0.1000042	7.96249E-05	0.724253
-6.60051	1.3E-10	0.748845	0.1000049	8.0136E-05	0.748845
-6.40049	1.249E-10	0.773362	0.1000052	8.06452E-05	0.773362
-6.2005	1.642E-10	0.797888	0.1000053	8.1153E-05	0.797888
-6.00048	1.739E-10	0.822397	0.1000048	8.16597E-05	0.822397
-5.80049	1.969E-10	0.846925	0.1000056	8.21638E-05	0.846925
-5.6005	2.026E-10	0.871469	0.1000053	8.26668E-05	0.871469
-5.40049	1.989E-10	0.895992	0.1000052	8.31676E-05	0.895992
-5.20049	1.966E-10	0.920509	0.1000063	8.36674E-05	0.920509
-5.00051	1.982E-10	0.945016	0.1000055	8.41652E-05	0.945016
-4.80048	2.008E-10	0.969644	0.1000055	8.46633E-05	0.969644
-4.60049	1.894E-10	0.994156	0.1000053	8.51582E-05	0.994156
-4.4005	2.116E-10	1.018688	0.1000052	8.56533E-05	1.018688
-4.2005	2.448E-10	1.0432	0.1000052	8.61468E-05	1.0432
-4.00049	2.138E-10	1.067773	0.1000049	8.66382E-05	1.067773
-3.80048	1.613E-10	1.127667	0.1000056	8.7126E-05	1.127667
-3.60048	1.87E-10	1.152214	0.1000058	8.76174E-05	1.152214
-3.40051	2.27E-10	1.17674	0.100006	8.81063E-05	1.17674
-3.20049	2.298E-10	1.201281	0.1000053	8.85945E-05	1.201281
-3.00049	2.272E-10	1.225852	0.1000041	8.9081E-05	1.225852
-2.80051	2.412E-10	1.250367	0.1000052	8.95663E-05	1.250367
-2.60049	2.356E-10	1.274892	0.1000056	9.00522E-05	1.274892
-2.40049	2.504E-10	1.299412	0.1000052	9.05353E-05	1.299412
-2.20049	-2.79E-11	1.323933	0.1000041	9.10166E-05	1.323933
-2.00049	2.433E-10	1.348456	0.100004	9.15E-05	1.348456
-1.80051	2.341E-10	1.372999	0.1000043	9.19828E-05	1.372999
-1.60049	2.51E-10	1.397518	0.1000049	9.2469E-05	1.397518
-1.40049	2.851E-10	1.422106	0.1000043	9.29569E-05	1.422106
-1.20051	2.633E-10	1.44662	0.100005	9.34552E-05	1.44662
-1.00052	2.544E-10	1.471242	0.1000046	9.39583E-05	1.471242
-0.80054	2.812E-10	1.495772	0.1000044	9.44738E-05	1.495772
-0.6005	2.904E-10	1.520306	0.1000041	9.49984E-05	1.520306
-0.40051	2.872E-10	1.544809	0.100004	9.55306E-05	1.544809
-0.20052	2.823E-10	1.569379	0.1000043	9.60714E-05	1.569379
-0.00051	2.374E-10	1.629198	0.1000044	9.66094E-05	1.629198
0.19948	2.598E-10	1.653737	0.1000042	9.71583E-05	1.653737
0.3995	2.791E-10	1.678346	0.1000046	9.77093E-05	1.678346
0.59951	3.277E-10	1.702859	0.1000039	9.82607E-05	1.702859
0.79949	2.94E-10	1.727429	0.1000043	9.88158E-05	1.727429
0.9995	2.746E-10	1.751993	0.1000037	9.93711E-05	1.751993
1.1995	3.083E-10	1.776516	0.1000042	9.99295E-05	1.776516
1.39948	3.262E-10	1.801019	0.1000037	0.0001004884	1.801019
1.59951	3.231E-10	1.825542	0.100004	0.0001010486	1.825542
1.79949	3.085E-10	1.850056	0.100004	0.0001016114	1.850056
1.9995	3.205E-10	1.874611	0.1000033	0.0001021748	1.874611
2.1995	3.427E-10	1.899129	0.1000035	0.0001027395	1.899129
2.3995	3.427E-10	1.923659	0.1000041	0.0001033059	1.923659
2.59952	3.328E-10	1.948176	0.1000031	0.0001038734	1.948176
2.79949	3.295E-10	1.972706	0.1000042	0.0001044419	1.972706
2.99949	3.342E-10	2.002275	0.0999999	0.000105086	2.002275
3.1995	3.475E-10	2.026814	0.1	0.000105654	2.026814
3.39949	3.34E-10	2.05131	0.1000001	0.000106222	2.05131
3.59952	3.408E-10	2.075926	0.0999999	0.000106787	2.075926
3.79948	2.737E-10	2.133915	0.0999999	0.000107347	2.133915
3.9995	3.424E-10	2.158448	0.1000001	0.000107915	2.158448
4.19949	3.631E-10	2.183062	0.0999997	0.000108476	2.183062
4.39947	3.47E-10	2.207579	0.1000002	0.000109038	2.207579
4.59949	3.4E-10	2.232173	0.1	0.000109598	2.232173
4.7995	3.874E-10	2.256687	0.1	0.000110156	2.256687
4.99949	4.451E-10	2.281218	0.0999998	0.000110711	2.281218
5.19948	3.862E-10	2.305737	0.1000001	0.000111263	2.305737
5.39951	3.683E-10	2.330258	0.1000002	0.000111811	2.330258
5.59949	3.947E-10	2.35477	0.0999999	0.000112358	2.35477
5.7995	3.986E-10	2.379326	0.1	0.000112899	2.379326
5.99949	3.939E-10	2.403871	0.0999999	0.000113439	2.403871
6.19948	3.873E-10	2.428425	0.0999999	0.000113977	2.428425
6.3995	3.843E-10	2.452928	0.1	0.000114512	2.452928
6.59949	3.967E-10	2.477474	0.0999999	0.000115044	2.477474
6.79951	4.232E-10	2.501986	0.1	0.000115573	2.501986
6.99947	4.068E-10	2.526519	0.1	0.000116096	2.526519
7.19948	3.949E-10	2.551034	0.0999999	0.000116621	2.551034
7.39949	4.042E-10	2.575648	0.1000001	0.00011714	2.575648
7.5995	3.387E-10	2.632486	0.0999998	0.000117651	2.632486
7.79948	3.914E-10	2.657016	0.0999998	0.000118165	2.657016
7.99949	4.095E-10	2.681544	0.0999998	0.000118675	2.681544
8.19949	4.156E-10	2.706055	0.1	0.000119183	2.706055
8.39952	2.808E-10	2.730633	0.0999998	0.000119686	2.730633
8.59949	3.915E-10	2.755193	0.0999999	0.000120189	2.755193
8.7995	4.218E-10	2.779725	0.0999998	0.000120689	2.779725
8.99949	4.143E-10	2.804231	0.1	0.000121186	2.804231
9.19949	4.111E-10	2.828748	0.1	0.000121677	2.828748
9.3995	3.964E-10	2.853254	0.1	0.000122173	2.853254
9.59948	4.27E-10	2.877811	0.1	0.000122666	2.877811
9.79949	4.527E-10	2.902323	0.0999999	0.000123156	2.902323
9.99948	4.215E-10	2.926847	0.1000001	0.000123641	2.926847
9.99946	3.778E-10	2.950188	0.1000002	0.000123639	2.950188
9.7995	2.847E-10	2.974726	0.0999999	0.000123153	2.974726
9.5995	2.453E-10	2.999243	0.1	0.000122669	2.999243
9.3995	2.505E-10	3.023777	0.1	0.000122179	3.023777
9.19948	1.967E-10	3.048286	0.1000001	0.000121685	3.048286
8.99947	1.495E-10	3.072845	0.0999999	0.000121188	3.072845
8.7995	1.886E-10	3.134	0.1000001	0.000120688	3.134
8.59951	1.735E-10	3.158522	0.0999998	0.000120178	3.158522
8.3995	1.45E-10	3.183052	0.0999997	0.000119672	3.183052
8.1995	9.88E-11	3.207564	0.1	0.000119157	3.207564
7.99947	9.57E-11	3.232153	0.1000002	0.00011864	3.232153
7.79949	9.3E-11	3.256664	0.0999999	0.000118121	3.256664
7.59951	9.89E-11	3.281282	0.0999998	0.000117599	3.281282
7.39949	6.59E-11	3.305784	0.1000001	0.000117076	3.305784
7.1995	5.13E-11	3.330313	0.1000001	0.00011655	3.330313
6.99948	5.36E-11	3.354818	0.0999998	0.000116021	3.354818
6.79948	3.67E-11	3.379435	0.1	0.00011549	3.379435
6.59952	4.95E-11	3.403956	0.1000001	0.000114955	3.403956
6.3995	2.29E-11	3.428538	0.1	0.000114419	3.428538
6.1995	-5.5E-12	3.453067	0.1000002	0.000113877	3.453067
5.9995	6.1E-12	3.477586	0.0999999	0.000113333	3.477586
5.7995	3.03E-11	3.502119	0.1000001	0.000112787	3.502119
5.5995	-2.24E-11	3.526653	0.0999999	0.00011224	3.526653
5.39951	-4.55E-11	3.551171	0.1	0.000111687	3.551171
5.1995	-1.42E-11	3.57567	0.0999999	0.000111133	3.57567
4.99949	3E-12	3.631497	0.1000002	0.000110577	3.631497
4.79949	-1.02E-11	3.656016	0.1	0.000110017	3.656016
4.5995	2.048E-10	3.680552	0.1	0.000109455	3.680552
4.39949	-2.81E-11	3.705075	0.1	0.000108889	3.705075
4.19951	-3.71E-11	3.729665	0.0999999	0.000108323	3.729665
3.99949	-3.84E-11	3.754225	0.0999999	0.000107758	3.754225
3.7995	-5.19E-11	3.778749	0.1	0.000107188	3.778749
3.59952	-5.66E-11	3.803279	0.0999999	0.000106617	3.803279
3.3995	-6.48E-11	3.827811	0.0999999	0.000106048	3.827811
3.19952	-9.97E-11	3.852316	0.0999999	0.000105476	3.852316
2.9995	-8.38E-11	3.876869	0.1	0.000104905	3.876869
2.79948	-6.68E-11	3.901474	0.1000001	0.000104335	3.901474
2.59953	-9.84E-11	3.925992	0.1	0.000103763	3.925992
2.3995	-1.115E-10	3.950512	0.0999998	0.000103195	3.950512
2.1995	-1.019E-10	3.975033	0.0999999	0.000102626	3.975033
1.99952	-1.083E-10	3.999564	0.0999999	0.00010206	3.999564
1.79951	-1.083E-10	4.024093	0.0999998	0.000101494	4.024093
1.59952	-1.348E-10	4.048602	0.1	0.000100929	4.048602
1.39951	-1.218E-10	4.073372	0.1	0.000100367	4.073372
1.19951	-9.33E-11	4.135442	0.1000001	9.9808E-05	4.135442
0.99951	-1.509E-10	4.160017	0.0999999	9.925E-05	4.160017
0.7995	-1.396E-10	4.184523	0.0999999	9.8691E-05	4.184523
0.59952	-1.334E-10	4.209056	0.0999999	9.8137E-05	4.209056
0.39952	-1.557E-10	4.233625	0.1	9.7582E-05	4.233625
0.1995	-1.56E-10	4.25816	0.0999998	9.703E-05	4.25816
-0.00052	-1.399E-10	4.282668	0.1	9.6482E-05	4.282668
-0.2005	-1.646E-10	4.307194	0.1	9.5935E-05	4.307194
-0.40048	-1.984E-10	4.331697	0.1	9.5397E-05	4.331697
-0.60049	-1.705E-10	4.356233	0.0999998	9.4869E-05	4.356233
-0.8005	-1.479E-10	4.380764	0.1	9.4351E-05	4.380764
-1.00048	-1.866E-10	4.405297	0.1	9.3841E-05	4.405297
-1.20049	-2.06E-10	4.429869	0.0999998	9.3343E-05	4.429869
-1.4005	-1.885E-10	4.454423	0.0999999	9.2852E-05	4.454423
-1.60049	-1.761E-10	4.478944	0.0999997	9.2365E-05	4.478944
-1.8005	-2.033E-10	4.503483	0.0999998	9.1884E-05	4.503483
-2.00051	-2.197E-10	4.528004	0.0999999	9.1402E-05	4.528004
-2.2005	-2.041E-10	4.552586	0.0999998	9.0921E-05	4.552586
-2.40051	-2.166E-10	4.577091	0.1	9.0437E-05	4.577091
-2.60049	-1.48E-10	4.634133	0.1	8.9956E-05	4.634133
-2.8005	-1.898E-10	4.658757	0.0999999	8.9471E-05	4.658757
-3.00048	-2.008E-10	4.683277	0.1	8.8986E-05	4.683277
-3.20048	-2.101E-10	4.707841	0.0999999	8.8498E-05	4.707841
-3.4005	-2.314E-10	4.732409	0.0999999	8.8012E-05	4.732409
-3.60047	-2.198E-10	4.757051	0.0999998	8.7524E-05	4.757051
-3.80049	-2.199E-10	4.781594	0.1000002	8.7035E-05	4.781594
-4.00048	-2.27E-10	4.806111	0.1	8.6543E-05	4.806111
-4.20049	-2.015E-10	4.833976	0.1000047	8.59722E-05	4.833976
-4.40048	-2.342E-10	4.858482	0.1000052	8.54791E-05	4.858482
-4.60048	-2.392E-10	4.883026	0.1000053	8.49847E-05	4.883026
-4.80047	-2.605E-10	4.907543	0.1000053	8.44886E-05	4.907543
-5.0005	-2.662E-10	4.932061	0.1000051	8.39913E-05	4.932061
-5.20052	-2.516E-10	4.956573	0.1000053	8.34938E-05	4.956573
-5.4005	-2.503E-10	4.981089	0.1000048	8.29916E-05	4.981089
-5.6005	-2.582E-10	5.005613	0.100005	8.24894E-05	5.005613
-5.80047	-2.867E-10	5.030138	0.1000053	8.19859E-05	5.030138
-6.00049	-2.809E-10	5.054679	0.1000055	8.14808E-05	5.054679
-6.2005	-1.752E-10	5.079158	0.1000052	8.09734E-05	5.079158
-6.40049	-1.943E-10	5.143174	0.1000058	8.0467E-05	5.143174
-6.60048	-2.401E-10	5.167735	0.1000062	7.9956E-05	5.167735
-6.80049	-2.713E-10	5.192275	0.1000063	7.94424E-05	5.192275
-7.00051	-2.602E-10	5.216801	0.1000062	7.89266E-05	5.216801
-7.20049	-2.497E-10	5.241379	0.1000057	7.8411E-05	5.241379
-7.40049	-2.853E-10	5.265899	0.1000064	7.78927E-05	5.265899
-7.60049	-3.005E-10	5.290422	0.1000058	7.73707E-05	5.290422
-7.80049	-2.856E-10	5.314963	0.1000058	7.68472E-05	5.314963
-8.00049	-2.702E-10	5.339488	0.1000062	7.63223E-05	5.339488
-8.20046	-2.937E-10	5.363992	0.1000068	7.57962E-05	5.363992
-8.40048	-3.104E-10	5.388531	0.1000064	7.52667E-05	5.388531
-8.60048	-2.956E-10	5.413052	0.1000061	7.47352E-05	5.413052
-8.80049	-2.952E-10	5.437583	0.1000066	7.42023E-05	5.437583
-9.00047	-3.061E-10	5.462091	0.1000067	7.36679E-05	5.462091
-9.20048	-3.154E-10	5.486595	0.1000062	7.31303E-05	5.486595
-9.40049	-3.261E-10	5.511124	0.1000072	7.25907E-05	5.511124
-9.6005	-3.191E-10	5.53565	0.1000061	7.20504E-05	5.53565
-9.80048	-5.42E-10	5.56018	0.1000061	7.15105E-05	5.56018
-10.00047	-3.469E-10	5.584783	0.1000051	7.09657E-05	5.584783
-10.20049	-2.839E-10	5.643336	0.1000059	7.0429E-05	5.643336
-10.40048	-3.295E-10	5.667853	0.100006	6.98812E-05	5.667853
-10.60048	-3.227E-10	5.692371	0.1000061	6.93325E-05	5.692371
-10.80049	-3.314E-10	5.716897	0.1000067	6.87795E-05	5.716897
-11.00046	-3.164E-10	5.741458	0.1000063	6.82235E-05	5.741458
-11.20049	-3.39E-10	5.766025	0.1000059	6.76665E-05	5.766025
-11.40048	-3.628E-10	5.790544	0.1000061	6.71076E-05	5.790544
-11.60049	-3.388E-10	5.815066	0.1000052	6.65454E-05	5.815066
-11.80049	-3.294E-10	5.839588	0.1000065	6.59823E-05	5.839588
-12.00046	-3.53E-10	5.864104	0.1000071	6.54164E-05	5.864104
#scan	iMeasureCycle=2	iMux=0	time=279.807	N=222	LocalTime=22/06/2023 07:13:30
#VGate(V)	IGate(A)	time(s)	VDrain(V)	IDrain(A)	time(s)
-12.00048	-2.307E-10	279.814505	0.1000054	6.5429E-05	279.814505
-11.80049	-1.38E-11	279.839405	0.1000067	6.59979E-05	279.839405
-11.6005	-2.21E-11	279.865098	0.100006	6.65649E-05	279.865098
-11.4005	2.18E-11	279.889681	0.1000061	6.71292E-05	279.889681
-11.2005	4.24E-11	279.914218	0.1000064	6.76913E-05	279.914218
-11.00048	5.74E-11	279.938725	0.1000058	6.82507E-05	279.938725
-10.80047	6.79E-11	279.963261	0.1000056	6.88092E-05	279.963261
-10.6005	5.08E-11	279.987777	0.1000063	6.93651E-05	279.987777
-10.4005	7.33E-11	280.01232	0.1000056	6.99172E-05	280.01232
-10.2005	1.114E-10	280.036831	0.100005	7.04676E-05	280.036831
-10.00046	9.96E-11	280.061432	0.100006	7.10169E-05	280.061432
-9.80046	1.024E-10	280.085966	0.100006	7.15642E-05	280.085966
-9.6005	1.009E-10	280.110496	0.1000055	7.21084E-05	280.110496
-9.40048	1.299E-10	280.135021	0.1000059	7.26528E-05	280.135021
-9.2005	1.401E-10	280.159538	0.1000056	7.31939E-05	280.159538
-9.00048	1.161E-10	280.184059	0.100006	7.37287E-05	280.184059
-8.80048	1.107E-10	280.208562	0.100007	7.42632E-05	280.208562
-8.60051	1.566E-10	280.233146	0.1000056	7.47924E-05	280.233146
-8.4005	1.641E-10	280.257649	0.1000051	7.53203E-05	280.257649
-8.2005	1.361E-10	280.282174	0.1000062	7.58468E-05	280.282174
-8.00049	1.448E-10	280.306701	0.1000047	7.63711E-05	280.306701
-7.80049	1.557E-10	280.331256	0.1000062	7.68934E-05	280.331256
-7.60049	1.465E-10	280.378016	0.1000055	7.74114E-05	280.378016
-7.4005	1.374E-10	280.402569	0.1000053	7.79311E-05	280.402569
-7.2005	1.363E-10	280.427086	0.1000057	7.84494E-05	280.427086
-7.00048	1.771E-10	280.451623	0.1000047	7.89651E-05	280.451623
-6.80049	1.81E-10	280.476179	0.1000055	7.94804E-05	280.476179
-6.6005	1.85E-10	280.500719	0.1000046	7.99911E-05	280.500719
-6.40051	1.786E-10	280.52522	0.1000055	8.05021E-05	280.52522
-6.20049	1.893E-10	280.549807	0.100005	8.10099E-05	280.549807
-6.00048	2.016E-10	280.574319	0.1000056	8.15179E-05	280.574319
-5.80049	2.138E-10	280.598832	0.1000048	8.20225E-05	280.598832
-5.60051	2.162E-10	280.623354	0.1000054	8.25278E-05	280.623354
-5.40052	1.874E-10	280.647882	0.1000047	8.30291E-05	280.647882
-5.20049	2.01E-10	280.672387	0.1000053	8.35288E-05	280.672387
-5.00052	2.521E-10	280.696905	0.1000051	8.40286E-05	280.696905
-4.80049	2.25E-10	280.721424	0.100004	8.45249E-05	280.721424
-4.60049	2.063E-10	280.745942	0.1000049	8.50217E-05	280.745942
-4.4005	2.718E-10	280.770449	0.1000056	8.55173E-05	280.770449
-4.20051	2.882E-10	280.794957	0.1000062	8.60118E-05	280.794957
-4.00051	2.606E-10	280.81948	0.1000052	8.65032E-05	280.81948
-3.80047	1.803E-10	280.879746	0.1000059	8.69913E-05	280.879746
-3.60048	2.188E-10	280.904331	0.1000051	8.7481E-05	280.904331
-3.40051	2.15E-10	280.928862	0.1000052	8.79705E-05	280.928862
-3.20051	2.494E-10	280.953371	0.1000051	8.84594E-05	280.953371
-3.0005	2.642E-10	280.977949	0.1000052	8.89471E-05	280.977949
-2.8005	2.455E-10	281.002431	0.1000053	8.9432E-05	281.002431
-2.60047	2.351E-10	281.02697	0.1000053	8.9917E-05	281.02697
-2.4005	2.525E-10	281.05156	0.100006	9.04026E-05	281.05156
-2.20046	2.791E-10	281.076094	0.1000052	9.08855E-05	281.076094
-2.00051	2.67E-10	281.100605	0.1000044	9.13678E-05	281.100605
-1.80052	2.58E-10	281.125148	0.1000053	9.1853E-05	281.125148
-1.60051	2.74E-10	281.149659	0.1000046	9.2338E-05	281.149659
-1.4005	1.721E-10	281.174192	0.1000042	9.28259E-05	281.174192
-1.20048	2.429E-10	281.198708	0.1000044	9.33228E-05	281.198708
-1.00051	2.615E-10	281.223301	0.100004	9.38252E-05	281.223301
-0.80051	2.69E-10	281.247824	0.100004	9.43406E-05	281.247824
-0.60049	2.802E-10	281.272361	0.1000044	9.48659E-05	281.272361
-0.4005	3.046E-10	281.296866	0.1000036	9.53975E-05	281.296866
-0.2005	2.879E-10	281.321394	0.1000044	9.59387E-05	281.321394
-0.00053	2.334E-10	281.38107	0.1000048	9.64779E-05	281.38107
0.1995	2.551E-10	281.405683	0.1000043	9.70273E-05	281.405683
0.39949	2.83E-10	281.430201	0.1000037	9.75796E-05	281.430201
0.59952	2.99E-10	281.454717	0.100004	9.81326E-05	281.454717
0.79949	2.998E-10	281.479289	0.1000038	9.86865E-05	281.479289
0.9995	2.921E-10	281.5038	0.1000037	9.9243E-05	281.5038
1.1995	2.949E-10	281.528304	0.100004	9.98024E-05	281.528304
1.3995	3.235E-10	281.552879	0.1000047	0.000100363	281.552879
1.59949	3.225E-10	281.5774	0.1000046	0.0001009235	281.5774
1.79948	3.141E-10	281.601913	0.1000045	0.0001014867	281.601913
1.99948	3.095E-10	281.626454	0.1000037	0.0001020501	281.626454
2.1995	3.17E-10	281.650963	0.1000038	0.0001026157	281.650963
2.39949	3.175E-10	281.675486	0.1000038	0.0001031822	281.675486
2.59949	3.386E-10	281.700011	0.100004	0.0001037518	281.700011
2.79948	3.19E-10	281.724541	0.1000038	0.0001043197	281.724541
2.99949	2.915E-10	281.771532	0.1	0.000104959	281.771532
3.1995	3.282E-10	281.796066	0.1000001	0.000105528	281.796066
3.39949	3.202E-10	281.820604	0.1000002	0.000106096	281.820604
3.59951	2.577E-10	281.883669	0.0999999	0.000106658	281.883669
3.79949	3.041E-10	281.908259	0.1	0.000107228	281.908259
3.9995	3.227E-10	281.932797	0.1	0.000107795	281.932797
4.19948	3.45E-10	281.957307	0.1000002	0.000108361	281.957307
4.39951	3.385E-10	281.981889	0.1	0.000108925	281.981889
4.59948	3.233E-10	282.006407	0.0999999	0.000109486	282.006407
4.7995	3.474E-10	282.030936	0.1	0.000110046	282.030936
4.99949	3.51E-10	282.055529	0.1	0.000110602	282.055529
5.19948	3.711E-10	282.080047	0.1000001	0.000111156	282.080047
5.39949	3.449E-10	282.104556	0.1	0.000111706	282.104556
5.5995	3.41E-10	282.129092	0.1000001	0.000112253	282.129092
5.79949	3.787E-10	282.153596	0.1000001	0.000112796	282.153596
5.99948	3.833E-10	282.178122	0.0999999	0.000113336	282.178122
6.19949	4.039E-10	282.202638	0.1000002	0.000113878	282.202638
6.39948	3.683E-10	282.227222	0.0999998	0.000114413	282.227222
6.59948	3.89E-10	282.25174	0.1000001	0.000114945	282.25174
6.7995	4.095E-10	282.276277	0.1	0.000115474	282.276277
6.99948	3.821E-10	282.300869	0.1	0.000116	282.300869
7.19949	3.854E-10	282.325385	0.1000003	0.000116526	282.325385
7.3995	3.246E-10	282.384293	0.0999999	0.000117041	282.384293
7.5995	3.572E-10	282.408831	0.0999998	0.000117558	282.408831
7.7995	3.902E-10	282.433371	0.0999999	0.000118075	282.433371
7.99949	3.897E-10	282.457871	0.1	0.000118584	282.457871
8.1995	3.753E-10	282.482456	0.1	0.000119091	282.482456
8.39949	3.735E-10	282.506969	0.0999999	0.000119596	282.506969
8.59952	4.007E-10	282.531576	0.0999999	0.000120099	282.531576
8.7995	4.211E-10	282.556203	0.0999999	0.0001206	282.556203
8.99949	2.681E-10	282.580729	0.1	0.000121093	282.580729
9.1995	3.813E-10	282.605251	0.1000001	0.00012159	282.605251
9.39948	3.923E-10	282.629766	0.1	0.000122085	282.629766
9.59949	3.941E-10	282.654271	0.0999999	0.000122579	282.654271
9.7995	4.168E-10	282.678796	0.0999999	0.000123066	282.678796
9.99949	4.03E-10	282.703319	0.1000001	0.000123555	282.703319
9.99949	3.249E-10	282.726679	0.0999999	0.000123555	282.726679
9.79951	2.776E-10	282.751188	0.1	0.000123068	282.751188
9.5995	2.506E-10	282.775709	0.1	0.000122581	282.775709
9.39952	1.918E-10	282.800225	0.0999999	0.000122091	282.800225
9.1995	1.64E-10	282.824839	0.1	0.000121597	282.824839
8.9995	1.967E-10	282.886334	0.1000001	0.000121101	282.886334
8.79949	1.513E-10	282.910924	0.1000001	0.000120602	282.910924
8.59949	1.316E-10	282.935439	0.0999999	0.000120096	282.935439
8.39951	1.072E-10	282.959974	0.1	0.000119583	282.959974
8.1995	1.004E-10	282.984537	0.0999999	0.000119073	282.984537
7.99951	8.34E-11	283.009079	0.1	0.000118553	283.009079
7.7995	6.91E-11	283.033599	0.1	0.000118033	283.033599
7.5995	6.98E-11	283.058224	0.1000001	0.000117513	283.058224
7.39949	5.21E-11	283.082739	0.1000001	0.000116988	283.082739
7.1995	1.98E-11	283.107252	0.1	0.000116463	283.107252
6.99948	3.8E-11	283.131768	0.1	0.000115932	283.131768
6.7995	5.53E-11	283.156283	0.1000002	0.000115401	283.156283
6.5995	1.63E-11	283.180794	0.1	0.000114865	283.180794
6.3995	-9E-12	283.20531	0.1	0.000114325	283.20531
6.1995	1.53E-11	283.229876	0.0999999	0.000113786	283.229876
5.99951	-2.6E-12	283.254393	0.1000002	0.000113242	283.254393
5.79952	-1.41E-11	283.278907	0.0999999	0.000112695	283.278907
5.5995	-2.67E-11	283.303425	0.1	0.000112148	283.303425
5.3995	-2.93E-11	283.327944	0.1	0.000111594	283.327944
5.1995	2.03E-11	283.383271	0.1000002	0.00011104	283.383271
4.9995	-2.72E-11	283.407793	0.1000003	0.000110483	283.407793
4.79949	-3E-11	283.432342	0.1000001	0.000109923	283.432342
4.59952	-2.16E-11	283.456932	0.1	0.000109359	283.456932
4.3995	-5.04E-11	283.481518	0.1	0.000108794	283.481518
4.19952	-8.31E-11	283.50604	0.0999998	0.000108229	283.50604
3.99949	-6.76E-11	283.530572	0.1	0.000107661	283.530572
3.79949	-3.63E-11	283.555266	0.1	0.000107092	283.555266
3.5995	-7.8E-11	283.579839	0.1000001	0.000106521	283.579839
3.39951	2.25E-11	283.604353	0.1	0.000105951	283.604353
3.19953	-6.74E-11	283.628866	0.1000001	0.000105378	283.628866
2.99949	-7.57E-11	283.653382	0.1000001	0.000104808	283.653382
2.79948	-8.04E-11	283.677905	0.0999999	0.000104236	283.677905
2.59952	-1.073E-10	283.702418	0.1000001	0.000103665	283.702418
2.39951	-1.15E-10	283.726929	0.1000001	0.000103096	283.726929
2.19949	-9.98E-11	283.751478	0.1	0.000102526	283.751478
1.9995	-9.69E-11	283.775981	0.0999998	0.000101959	283.775981
1.7995	-1.151E-10	283.800527	0.0999999	0.000101394	283.800527
1.59952	-1.413E-10	283.825038	0.1000001	0.000100831	283.825038
1.39951	-7.28E-11	283.887171	0.1000002	0.000100269	283.887171
1.19949	-1.047E-10	283.911803	0.1	9.9709E-05	283.911803
0.99951	-7.8E-11	283.936422	0.1000002	9.9149E-05	283.936422
0.79949	-1.281E-10	283.960955	0.1	9.8594E-05	283.960955
0.59951	-2.221E-10	283.985522	0.0999999	9.8038E-05	283.985522
0.39952	-1.776E-10	284.010058	0.1	9.7484E-05	284.010058
0.19949	-1.32E-10	284.034575	0.0999999	9.6931E-05	284.034575
-0.00049	-1.703E-10	284.05922	0.1	9.6381E-05	284.05922
-0.20049	-1.76E-10	284.083736	0.0999999	9.5839E-05	284.083736
-0.4005	-1.712E-10	284.108247	0.0999999	9.5301E-05	284.108247
-0.6005	-1.627E-10	284.132761	0.1	9.4772E-05	284.132761
-0.80049	-1.652E-10	284.157294	0.0999998	9.4254E-05	284.157294
-1.00047	-1.91E-10	284.181818	0.1	9.3747E-05	284.181818
-1.2005	-1.985E-10	284.206345	0.0999999	9.3248E-05	284.206345
-1.40052	-1.824E-10	284.230912	0.1000001	9.2758E-05	284.230912
-1.60048	-1.85E-10	284.255437	0.0999999	9.2274E-05	284.255437
-1.80048	-1.816E-10	284.279956	0.1000001	9.179E-05	284.279956
-2.00048	-2.119E-10	284.304465	0.0999999	9.1307E-05	284.304465
-2.20049	-2.129E-10	284.328975	0.1000002	9.0825E-05	284.328975
-2.40051	-1.459E-10	284.390088	0.1000001	9.0345E-05	284.390088
-2.60048	-1.522E-10	284.414636	0.1	8.9862E-05	284.414636
-2.80049	-2.029E-10	284.439204	0.1000002	8.9378E-05	284.439204
-3.00048	-2.155E-10	284.46373	0.1000001	8.8891E-05	284.46373
-3.20049	-2.085E-10	284.488287	0.1	8.8403E-05	284.488287
-3.40048	-2.078E-10	284.51281	0.1	8.7916E-05	284.51281
-3.60048	-2.067E-10	284.537315	0.1000001	8.7427E-05	284.537315
-3.80049	-2.307E-10	284.562033	0.0999999	8.6939E-05	284.562033
-4.00049	-2.116E-10	284.589916	0.1000049	8.63701E-05	284.589916
-4.20048	-1.963E-10	284.614442	0.1000044	8.5879E-05	284.614442
-4.4005	-2.359E-10	284.638944	0.1000049	8.5386E-05	284.638944
-4.6005	-2.452E-10	284.663474	0.1000041	8.48901E-05	284.663474
-4.80048	-2.366E-10	284.687986	0.1000052	8.4395E-05	284.687986
-5.0005	-2.385E-10	284.712516	0.1000053	8.38971E-05	284.712516
-5.20047	-2.339E-10	284.737037	0.100005	8.33986E-05	284.737037
-5.40051	-2.648E-10	284.761579	0.1000054	8.28978E-05	284.761579
-5.60049	-2.692E-10	284.786094	0.1000045	8.23953E-05	284.786094
-5.8005	-2.456E-10	284.810617	0.1000049	8.18924E-05	284.810617
-6.0005	-2.457E-10	284.835132	0.1000057	8.13856E-05	284.835132
-6.20048	-1.71E-10	284.895666	0.1000053	8.08809E-05	284.895666
-6.40046	-2.461E-10	284.920198	0.1000051	8.03699E-05	284.920198
-6.60051	-2.743E-10	284.94474	0.1000048	7.98592E-05	284.94474
-6.80047	-2.615E-10	284.969272	0.1000057	7.93465E-05	284.969272
-7.00048	-2.402E-10	284.993916	0.1000048	7.88304E-05	284.993916
-7.20047	-9.66E-11	285.018438	0.1000053	7.83142E-05	285.018438
-7.4005	-2.763E-10	285.042953	0.1000054	7.77955E-05	285.042953
-7.60048	-2.618E-10	285.067549	0.1000054	7.72743E-05	285.067549
-7.80048	-2.662E-10	285.092071	0.100006	7.67515E-05	285.092071
-8.00049	-2.742E-10	285.116585	0.1000056	7.62268E-05	285.116585
-8.20048	-2.851E-10	285.14111	0.1000061	7.56999E-05	285.14111
-8.40049	-2.879E-10	285.165633	0.1000066	7.51702E-05	285.165633
-8.60049	-2.856E-10	285.190166	0.1000063	7.4639E-05	285.190166
-8.80049	-2.721E-10	285.214689	0.1000055	7.41049E-05	285.214689
-9.00049	-2.929E-10	285.239294	0.1000066	7.3571E-05	285.239294
-9.20047	-3.131E-10	285.263809	0.1000063	7.30336E-05	285.263809
-9.40046	-3.045E-10	285.288363	0.1000057	7.24945E-05	285.288363
-9.6005	-3.077E-10	285.31287	0.1000064	7.19546E-05	285.31287
-9.80047	-2.941E-10	285.337402	0.100007	7.14129E-05	285.337402
-10.0005	-2.299E-10	285.3943	0.1000054	7.0875E-05	285.3943
-10.20048	-4.412E-10	285.418833	0.1000061	7.03306E-05	285.418833
-10.40048	-3.347E-10	285.443352	0.100005	6.97818E-05	285.443352
-10.60049	-3.243E-10	285.467874	0.1000061	6.92316E-05	285.467874
-10.80047	-2.997E-10	285.492462	0.1000061	6.86794E-05	285.492462
-11.00046	-3.183E-10	285.516966	0.1000059	6.81231E-05	285.516966
-11.20048	-3.402E-10	285.541493	0.1000057	6.75665E-05	285.541493
-11.40046	-3.572E-10	285.566078	0.100006	6.70063E-05	285.566078
-11.60049	-3.237E-10	285.590606	0.100006	6.64447E-05	285.590606
-11.80049	-3.192E-10	285.615112	0.1000068	6.58816E-05	285.615112
-12.00048	-3.571E-10	285.639637	0.1000065	6.53139E-05	285.639637
#scan	iMeasureCycle=3	iMux=0	time=319.868	N=222	LocalTime=22/06/2023 07:14:11
#VGate(V)	IGate(A)	time(s)	VDrain(V)	IDrain(A)	time(s)
-12.00048	-9.86E-11	319.87559	0.1000068	6.54417E-05	319.87559
-11.80052	-5.18E-11	319.900707	0.1000069	6.60116E-05	319.900707
-11.60049	3.4E-12	319.926317	0.1000064	6.65781E-05	319.926317
-11.40049	2.55E-11	319.950851	0.1000062	6.71419E-05	319.950851
-11.2005	2.22E-11	319.975434	0.1000068	6.77041E-05	319.975434
-11.00048	2.39E-11	319.999965	0.1000069	6.8264E-05	319.999965
-10.80048	5.77E-11	320.024501	0.1000063	6.8822E-05	320.024501
-10.60049	7.83E-11	320.049099	0.1000067	6.93772E-05	320.049099
-10.4005	7.03E-11	320.07365	0.1000074	6.99306E-05	320.07365
-10.2005	8.05E-11	320.098168	0.100006	7.048E-05	320.098168
-10.0005	8.91E-11	320.122769	0.1000054	7.10292E-05	320.122769
-9.80049	9.19E-11	320.147279	0.1000055	7.1576E-05	320.147279
-9.60051	1.216E-10	320.17185	0.1000059	7.21208E-05	320.17185
-9.40049	1E-10	320.196468	0.1000065	7.26653E-05	320.196468
-9.20048	8.26E-11	320.220979	0.1000062	7.32064E-05	320.220979
-9.00048	1.261E-10	320.245515	0.1000067	7.37418E-05	320.245515
-8.80049	1.529E-10	320.270034	0.1000068	7.42745E-05	320.270034
-8.60048	1.198E-10	320.294632	0.1000066	7.48054E-05	320.294632
-8.40049	1.037E-10	320.319151	0.1000055	7.53314E-05	320.319151
-8.2005	1.506E-10	320.343661	0.1000047	7.5858E-05	320.343661
-8.00049	1.526E-10	320.368173	0.1000057	7.63829E-05	320.368173
-7.8005	1.462E-10	320.392716	0.1000059	7.69039E-05	320.392716
-7.6005	8.65E-11	320.439623	0.1000049	7.74224E-05	320.439623
-7.40051	1.372E-10	320.464144	0.100006	7.79418E-05	320.464144
-7.2005	1.719E-10	320.488666	0.1000057	7.84599E-05	320.488666
-7.00049	1.632E-10	320.513178	0.1000043	7.89747E-05	320.513178
-6.80048	1.586E-10	320.537755	0.1000051	7.94894E-05	320.537755
-6.60049	1.663E-10	320.562275	0.1000056	8.00021E-05	320.562275
-6.40051	1.99E-10	320.586901	0.1000056	8.05124E-05	320.586901
-6.20048	4.759E-10	320.611414	0.1000054	8.10207E-05	320.611414
-6.00049	1.95E-10	320.636001	0.1000055	8.15264E-05	320.636001
-5.80049	1.842E-10	320.660515	0.1000058	8.20325E-05	320.660515
-5.60051	2.088E-10	320.68506	0.1000055	8.25361E-05	320.68506
-5.4005	2.252E-10	320.70957	0.1000061	8.30388E-05	320.70957
-5.2005	2.045E-10	320.734088	0.1000057	8.35385E-05	320.734088
-5.0005	2.023E-10	320.758597	0.1000061	8.40375E-05	320.758597
-4.80049	7.67E-11	320.783135	0.1000062	8.45354E-05	320.783135
-4.6005	2.02E-10	320.807642	0.1000053	8.5029E-05	320.807642
-4.4005	2.242E-10	320.832178	0.1000048	8.5524E-05	320.832178
-4.2005	2.151E-10	320.856691	0.100005	8.60177E-05	320.856691
-4.00051	1.98E-10	320.881206	0.1000054	8.65101E-05	320.881206
-3.80049	1.613E-10	320.941236	0.1000054	8.69968E-05	320.941236
-3.60049	1.557E-10	320.965793	0.1000073	8.74884E-05	320.965793
-3.40047	2.387E-10	320.990332	0.1000073	8.79776E-05	320.990332
-3.20045	3.124E-10	321.014847	0.1000055	8.84638E-05	321.014847
-3.0005	2.159E-10	321.039435	0.100005	8.89497E-05	321.039435
-2.80048	2.426E-10	321.063949	0.1000053	8.94369E-05	321.063949
-2.6005	2.506E-10	321.088543	0.1000049	8.9922E-05	321.088543
-2.4005	2.581E-10	321.113067	0.1000051	9.04057E-05	321.113067
-2.20051	2.476E-10	321.137699	0.1000043	9.08881E-05	321.137699
-2.00048	2.496E-10	321.162212	0.1000048	9.13724E-05	321.162212
-1.8005	2.644E-10	321.186728	0.1000049	9.1856E-05	321.186728
-1.60049	2.83E-10	321.211257	0.1000048	9.23409E-05	321.211257
-1.40051	2.66E-10	321.235772	0.1000048	9.28296E-05	321.235772
-1.2005	2.464E-10	321.260299	0.1000052	9.33247E-05	321.260299
-1.00051	2.903E-10	321.284822	0.1000051	9.38283E-05	321.284822
-0.80051	3.135E-10	321.309396	0.1000048	9.43411E-05	321.309396
-0.60052	2.751E-10	321.333924	0.1000035	9.48663E-05	321.333924
-0.40051	2.707E-10	321.358426	0.1000045	9.53998E-05	321.358426
-0.20052	3.079E-10	321.383002	0.1000039	9.59375E-05	321.383002
-0.00051	2.406E-10	321.442864	0.1000047	9.64781E-05	321.442864
0.1995	2.804E-10	321.467376	0.100004	9.70267E-05	321.467376
0.39949	2.926E-10	321.491894	0.100005	9.75805E-05	321.491894
0.59952	2.883E-10	321.516405	0.1000042	9.8134E-05	321.516405
0.79949	2.79E-10	321.540984	0.100004	9.86881E-05	321.540984
0.99949	3.235E-10	321.565578	0.1000039	9.92445E-05	321.565578
1.1995	3.268E-10	321.590118	0.1000047	9.98042E-05	321.590118
1.39952	2.934E-10	321.614631	0.1000039	0.0001003633	321.614631
1.59951	2.999E-10	321.639215	0.1000037	0.0001009232	321.639215
1.79951	3.258E-10	321.663734	0.1000046	0.0001014884	321.663734
1.9995	3.288E-10	321.688239	0.1000036	0.0001020537	321.688239
2.1995	3.165E-10	321.712837	0.1000044	0.0001026172	321.712837
2.39949	3.344E-10	321.737346	0.1000038	0.0001031855	321.737346
2.5995	3.361E-10	321.761859	0.1000043	0.0001037527	321.761859
2.79949	3.389E-10	321.78639	0.1000042	0.0001043217	321.78639
2.99949	3.039E-10	321.815949	0.1000001	0.000104966	321.815949
3.19948	3.269E-10	321.840469	0.0999998	0.000105533	321.840469
3.39949	3.494E-10	321.865007	0.0999999	0.000106102	321.865007
3.59948	3.704E-10	321.889516	0.1	0.000106669	321.889516
3.79948	2.906E-10	321.947507	0.1	0.000107233	321.947507
3.9995	3.49E-10	321.97208	0.0999999	0.000107799	321.97208
4.1995	3.29E-10	321.996607	0.1000001	0.000108365	321.996607
4.39948	4.718E-10	322.021127	0.0999999	0.000108926	322.021127
4.5995	3.802E-10	322.045708	0.0999999	0.000109489	322.045708
4.79947	3.902E-10	322.070307	0.0999998	0.000110047	322.070307
4.99948	3.611E-10	322.094839	0.0999999	0.000110606	322.094839
5.1995	3.518E-10	322.119362	0.1	0.000111159	322.119362
5.3995	3.785E-10	322.143949	0.1	0.00011171	322.143949
5.5995	1.777E-10	322.168484	0.0999998	0.000112256	322.168484
5.79949	3.439E-10	322.193002	0.0999999	0.000112802	322.193002
5.99947	3.586E-10	322.217538	0.0999998	0.000113343	322.217538
6.19949	3.854E-10	322.242044	0.1000001	0.000113882	322.242044
6.39948	3.782E-10	322.266572	0.0999999	0.000114417	322.266572
6.59949	3.832E-10	322.291085	0.1000001	0.000114951	322.291085
6.79948	3.858E-10	322.31573	0.1	0.000115479	322.31573
6.99947	3.68E-10	322.34025	0.0999999	0.000116007	322.34025
7.19949	3.937E-10	322.364798	0.0999997	0.00011653	322.364798
7.39949	4.272E-10	322.389316	0.1000001	0.00011705	322.389316
7.59948	3.403E-10	322.446113	0.1	0.000117563	322.446113
7.7995	3.907E-10	322.470632	0.1	0.000118078	322.470632
7.99949	3.878E-10	322.495144	0.0999999	0.000118588	322.495144
8.19948	3.671E-10	322.519676	0.0999999	0.000119097	322.519676
8.3995	3.985E-10	322.544246	0.0999999	0.000119601	322.544246
8.59949	4.413E-10	322.568757	0.0999999	0.000120106	322.568757
8.7995	3.935E-10	322.593327	0.1	0.000120606	322.593327
8.9995	3.7E-10	322.61786	0.0999999	0.000121101	322.61786
9.19949	4.322E-10	322.64242	0.0999998	0.000121595	322.64242
9.39949	4.295E-10	322.666957	0.1000002	0.00012209	322.666957
9.59948	4.15E-10	322.691468	0.1000001	0.000122583	322.691468
9.7995	4.125E-10	322.716012	0.0999999	0.000123072	322.716012
9.99948	4.143E-10	322.740519	0.0999999	0.000123561	322.740519
9.99948	3.684E-10	322.763871	0.1	0.00012356	322.763871
9.7995	3.055E-10	322.788413	0.1	0.000123072	322.788413
9.59948	2.466E-10	322.812933	0.1	0.000122586	322.812933
9.39951	2.073E-10	322.837449	0.0999999	0.000122095	322.837449
9.19947	1.845E-10	322.86195	0.0999999	0.000121602	322.86195
8.99951	1.798E-10	322.886454	0.0999996	0.000121108	322.886454
8.79951	2.08E-10	322.947979	0.1	0.000120606	322.947979
8.5995	1.387E-10	322.972568	0.0999999	0.000120101	322.972568
8.39953	1.063E-10	322.997103	0.1	0.000119588	322.997103
8.19951	1.175E-10	323.021622	0.1	0.000119076	323.021622
7.9995	9.93E-11	323.046193	0.0999998	0.000118559	323.046193
7.79952	7.71E-11	323.070718	0.1000001	0.00011804	323.070718
7.59951	7.92E-11	323.095229	0.1000002	0.000117518	323.095229
7.3995	5.46E-11	323.119762	0.0999999	0.000116993	323.119762
7.19948	5.18E-11	323.14436	0.1000001	0.000116466	323.14436
6.99952	7.04E-11	323.168872	0.0999999	0.000115936	323.168872
6.79951	3.95E-11	323.19341	0.0999998	0.000115404	323.19341
6.59949	1.1E-12	323.217915	0.1	0.000114869	323.217915
6.3995	8.6E-12	323.242451	0.0999999	0.000114331	323.242451
6.1995	2.92E-11	323.266956	0.1	0.00011379	323.266956
5.99951	6.8E-12	323.291488	0.1	0.000113244	323.291488
5.79951	-1.96E-11	323.316156	0.1	0.000112699	323.316156
5.59952	-2.58E-11	323.340686	0.1	0.000112148	323.340686
5.39949	3E-13	323.365196	0.1	0.000111597	323.365196
5.1995	-1.98E-11	323.389715	0.1000001	0.00011104	323.389715
4.9995	5.84E-11	323.449388	0.0999998	0.000110484	323.449388
4.79951	-7.7E-12	323.473923	0.0999998	0.000109922	323.473923
4.59949	-4.11E-11	323.49843	0.0999998	0.000109359	323.49843
4.39948	-3.29E-11	323.522979	0.1	0.000108795	323.522979
4.19949	-2.04E-11	323.547543	0.0999999	0.000108227	323.547543
3.9995	-1.503E-10	323.57208	0.0999998	0.00010766	323.57208
3.79949	-9.07E-11	323.596597	0.1	0.000107089	323.596597
3.5995	-7.01E-11	323.621145	0.1	0.000106518	323.621145
3.3995	-6.54E-11	323.645735	0.1	0.000105947	323.645735
3.1995	-8.3E-11	323.670259	0.1000001	0.000105375	323.670259
2.99949	-1.036E-10	323.694781	0.0999999	0.000104804	323.694781
2.79949	-1.025E-10	323.719302	0.0999998	0.000104233	323.719302
2.59951	-9.38E-11	323.743822	0.0999999	0.000103663	323.743822
2.3995	-8.58E-11	323.768339	0.1000001	0.000103094	323.768339
2.19951	-1.117E-10	323.792859	0.1000001	0.000102524	323.792859
1.99949	-1.277E-10	323.817379	0.0999999	0.000101957	323.817379
1.79951	-1.26E-10	323.841891	0.0999998	0.00010139	323.841891
1.5995	-1.252E-10	323.866407	0.0999997	0.000100825	323.866407
1.39951	-1.093E-10	323.89093	0.0999997	0.000100262	323.89093
1.1995	-8.26E-11	323.951077	0.0999997	9.9704E-05	323.951077
0.99952	-1.307E-10	323.975701	0.1	9.9145E-05	323.975701
0.79948	-1.275E-10	324.000235	0.0999999	9.8589E-05	324.000235
0.59951	-1.14E-10	324.024775	0.0999999	9.803E-05	324.024775
0.39952	-1.297E-10	324.049362	0.1	9.7477E-05	324.049362
0.19949	-1.54E-10	324.073962	0.1	9.6923E-05	324.073962
-0.00049	-1.62E-10	324.098488	0.1000002	9.6374E-05	324.098488
-0.20049	-1.575E-10	324.122952	0.1000001	9.5828E-05	324.122952
-0.40049	-1.588E-10	324.147569	0.0999999	9.529E-05	324.147569
-0.60049	-1.671E-10	324.172091	0.0999999	9.4761E-05	324.172091
-0.80051	-1.917E-10	324.196652	0.1	9.4244E-05	324.196652
-1.0005	-1.852E-10	324.221159	0.0999999	9.3736E-05	324.221159
-1.20051	-1.778E-10	324.245705	0.1	9.3238E-05	324.245705
-1.4005	-1.777E-10	324.270225	0.1000002	9.2749E-05	324.270225
-1.6005	-1.976E-10	324.29475	0.0999999	9.2263E-05	324.29475
-1.8005	-2.209E-10	324.319321	0.0999997	9.178E-05	324.319321
-2.00051	-1.889E-10	324.343856	0.1	9.1298E-05	324.343856
-2.2005	-1.673E-10	324.368375	0.0999999	9.0816E-05	324.368375
-2.40047	-2.168E-10	324.392904	0.1000001	9.0333E-05	324.392904
-2.60049	-1.556E-10	324.452948	0.0999999	8.9851E-05	324.452948
-2.8005	-2.111E-10	324.477474	0.0999998	8.9367E-05	324.477474
-3.00048	-1.956E-10	324.502055	0.1000001	8.888E-05	324.502055
-3.2005	-1.909E-10	324.526567	0.0999998	8.8394E-05	324.526567
-3.40053	-2.019E-10	324.551148	0.0999999	8.7906E-05	324.551148
-3.60049	-2.028E-10	324.579006	0.1000047	8.73408E-05	324.579006
-3.80049	-2.152E-10	324.603526	0.1000053	8.68524E-05	324.603526
-4.00048	-2.09E-10	324.628094	0.1000052	8.63615E-05	324.628094
-4.20048	-2.331E-10	324.652647	0.100005	8.58688E-05	324.652647
-4.40049	-2.522E-10	324.677184	0.1000054	8.53762E-05	324.677184
-4.60049	-2.337E-10	324.701706	0.1000044	8.48809E-05	324.701706
-4.8005	-2.352E-10	324.726228	0.1000047	8.43842E-05	324.726228
-5.0005	-2.371E-10	324.750744	0.1000056	8.38881E-05	324.750744
-5.20048	-2.571E-10	324.775349	0.1000053	8.33886E-05	324.775349
-5.40051	-2.78E-10	324.799869	0.1000056	8.28881E-05	324.799869
-5.60049	-2.373E-10	324.824388	0.1000052	8.23853E-05	324.824388
-5.80048	-1.297E-10	324.848917	0.1000056	8.18814E-05	324.848917
-6.00049	-2.663E-10	324.873435	0.1000059	8.13763E-05	324.873435
-6.20048	-2.827E-10	324.897945	0.1000062	8.08673E-05	324.897945
-6.40049	-2.276E-10	324.957112	0.1000043	8.03596E-05	324.957112
-6.60049	-2.567E-10	324.981689	0.1000045	7.98495E-05	324.981689
-6.80046	-2.596E-10	325.006367	0.1000052	7.93357E-05	325.006367
-7.00048	-2.519E-10	325.030872	0.1000067	7.88209E-05	325.030872
-7.20047	-2.805E-10	325.055452	0.100006	7.83023E-05	325.055452
-7.4005	-2.827E-10	325.079967	0.1000053	7.77836E-05	325.079967
-7.60046	-2.722E-10	325.104489	0.1000062	7.72633E-05	325.104489
-7.80048	-2.674E-10	325.128995	0.1000047	7.67377E-05	325.128995
-8.00048	-2.895E-10	325.153601	0.1000059	7.62143E-05	325.153601
-8.20048	-3.127E-10	325.17811	0.1000065	7.56868E-05	325.17811
-8.40049	-2.823E-10	325.202667	0.1000049	7.51551E-05	325.202667
-8.6005	-2.63E-10	325.227181	0.1000061	7.46248E-05	325.227181
-8.80048	-3.107E-10	325.251802	0.1000057	7.40914E-05	325.251802
-9.0005	-3.212E-10	325.27632	0.1000059	7.35561E-05	325.27632
-9.20049	-2.961E-10	325.300833	0.1000061	7.30182E-05	325.300833
-9.40049	-3.097E-10	325.325386	0.1000055	7.24775E-05	325.325386
-9.60048	-3.052E-10	325.349881	0.1000057	7.19366E-05	325.349881
-9.80047	-3.077E-10	325.374398	0.1000053	7.13963E-05	325.374398
-10.00049	-3.298E-10	325.398917	0.1000067	7.08525E-05	325.398917
-10.20047	-2.672E-10	325.455922	0.1000063	7.03141E-05	325.455922
-10.40047	-2.901E-10	325.480431	0.1000075	6.9766E-05	325.480431
-10.60051	-3.106E-10	325.504974	0.1000059	6.92145E-05	325.504974
-10.8005	-3.053E-10	325.529483	0.1000062	6.86613E-05	325.529483
-11.00047	-3.125E-10	325.554092	0.100007	6.81075E-05	325.554092
-11.2005	-3.404E-10	325.578597	0.1000068	6.75484E-05	325.578597
-11.40047	-3.246E-10	325.603127	0.1000061	6.69888E-05	325.603127
-11.6005	-2.896E-10	325.627639	0.1000067	6.64269E-05	325.627639
-11.80049	-3.379E-10	325.652266	0.1000054	6.58611E-05	325.652266
-12.00047	-3.603E-10	325.676781	0.1000064	6.52953E-05	325.676781
