#scan	iMeasureCycle=1	iMux=0	time=0.039	N=222	LocalTime=22/06/2023 02:50:49
#VGate(V)	IGate(A)	time(s)	VDrain(V)	IDrain(A)	time(s)
-12.00048	-3.1625E-09	0.064872	0.1000068	5.68548E-05	0.064872
-11.80049	-2.9684E-09	0.089734	0.1000079	5.74533E-05	0.089734
-11.6005	-1.0602E-09	0.114266	0.1000066	5.80493E-05	0.114266
-11.40051	-4.786E-10	0.138786	0.1000056	5.86433E-05	0.138786
-11.2005	-3.333E-10	0.163304	0.1000061	5.92347E-05	0.163304
-11.0005	-2.089E-10	0.187824	0.1000065	5.98247E-05	0.187824
-10.80049	-1.44E-10	0.212337	0.1000072	6.04121E-05	0.212337
-10.60048	-7.44E-11	0.236854	0.1000061	6.09973E-05	0.236854
-10.4005	-6.01E-11	0.261428	0.1000067	6.15816E-05	0.261428
-10.2005	-4.26E-11	0.285944	0.1000055	6.21617E-05	0.285944
-10.00048	-3.6E-12	0.310517	0.1000072	6.27436E-05	0.310517
-9.80048	-1.663E-10	0.335051	0.1000063	6.33216E-05	0.335051
-9.60048	5E-13	0.359564	0.1000057	6.38976E-05	0.359564
-9.40048	2.1E-11	0.384099	0.1000065	6.44715E-05	0.384099
-9.20047	3.29E-11	0.408618	0.1000071	6.50452E-05	0.408618
-9.00049	6.39E-11	0.433249	0.1000064	6.5611E-05	0.433249
-8.80048	8.52E-11	0.457768	0.1000068	6.61759E-05	0.457768
-8.60049	6.61E-11	0.482312	0.1000058	6.67363E-05	0.482312
-8.40051	7.81E-11	0.506912	0.1000061	6.72971E-05	0.506912
-8.20048	1.133E-10	0.531454	0.1000058	6.78551E-05	0.531454
-8.00048	1.1E-10	0.555976	0.1000067	6.84117E-05	0.555976
-7.80052	1.104E-10	0.580592	0.1000067	6.89659E-05	0.580592
-7.60051	6.31E-11	0.628138	0.1000052	6.95137E-05	0.628138
-7.4005	1.067E-10	0.65273	0.1000051	7.0066E-05	0.65273
-7.20049	1.34E-10	0.677257	0.1000059	7.06165E-05	0.677257
-7.0005	1.372E-10	0.701778	0.1000055	7.11623E-05	0.701778
-6.80049	1.28E-10	0.72635	0.1000063	7.17098E-05	0.72635
-6.60051	1.473E-10	0.750941	0.1000048	7.2253E-05	0.750941
-6.40048	1.834E-10	0.77545	0.1000051	7.27955E-05	0.77545
-6.20049	1.607E-10	0.800031	0.1000063	7.33362E-05	0.800031
-6.00052	1.511E-10	0.824567	0.1000055	7.3875E-05	0.824567
-5.8005	1.876E-10	0.849123	0.1000056	7.44114E-05	0.849123
-5.60051	1.869E-10	0.873667	0.1000056	7.4946E-05	0.873667
-5.40049	1.88E-10	0.898173	0.1000051	7.54795E-05	0.898173
-5.2005	1.85E-10	0.922785	0.1000049	7.60123E-05	0.922785
-5.00049	1.971E-10	0.94731	0.1000052	7.65425E-05	0.94731
-4.80047	2.08E-10	0.971854	0.1000053	7.70721E-05	0.971854
-4.60049	2.098E-10	0.996383	0.1000045	7.75998E-05	0.996383
-4.4005	2.124E-10	1.020977	0.1000052	7.81272E-05	1.020977
-4.2005	2.087E-10	1.045493	0.100005	7.86512E-05	1.045493
-4.00051	2.203E-10	1.070015	0.1000054	7.9176E-05	1.070015
-3.8005	1.76E-10	1.1296	0.100004	7.9695E-05	1.1296
-3.60049	2.084E-10	1.154132	0.1000057	8.02189E-05	1.154132
-3.4005	2.233E-10	1.178654	0.1000054	8.07404E-05	1.178654
-3.20049	2.242E-10	1.203201	0.1000046	8.12595E-05	1.203201
-3.0005	2.388E-10	1.227779	0.1000059	8.17817E-05	1.227779
-2.80051	2.44E-10	1.25239	0.1000049	8.22999E-05	1.25239
-2.6005	2.453E-10	1.276895	0.1000045	8.28167E-05	1.276895
-2.40051	2.632E-10	1.301475	0.1000044	8.33339E-05	1.301475
-2.20052	2.484E-10	1.325999	0.1000043	8.38494E-05	1.325999
-2.00049	3.62E-10	1.350528	0.1000057	8.43672E-05	1.350528
-1.80051	3.122E-10	1.375054	0.1000055	8.48812E-05	1.375054
-1.60049	2.897E-10	1.399577	0.1000052	8.53985E-05	1.399577
-1.4005	2.78E-10	1.424105	0.1000053	8.59169E-05	1.424105
-1.20049	2.811E-10	1.448628	0.1000063	8.64405E-05	1.448628
-1.0005	2.928E-10	1.473169	0.1000049	8.69707E-05	1.473169
-0.80052	3.072E-10	1.4977	0.1000045	8.75127E-05	1.4977
-0.60048	2.916E-10	1.522233	0.1000048	8.80656E-05	1.522233
-0.40048	2.952E-10	1.546715	0.1000046	8.86288E-05	1.546715
-0.20051	3.138E-10	1.571257	0.1000049	8.9203E-05	1.571257
-0.0005	2.503E-10	1.631303	0.1000046	8.97756E-05	1.631303
0.19949	2.975E-10	1.655851	0.1000051	9.03626E-05	1.655851
0.39952	2.991E-10	1.68036	0.1000045	9.09529E-05	1.68036
0.5995	2.946E-10	1.704869	0.1000054	9.15436E-05	1.704869
0.79952	3.036E-10	1.729453	0.1000063	9.21395E-05	1.729453
0.99949	1.615E-10	1.753972	0.1000051	9.27351E-05	1.753972
1.19951	3.074E-10	1.778684	0.1000045	9.33319E-05	1.778684
1.39949	2.993E-10	1.803238	0.100004	9.39324E-05	1.803238
1.59952	3.114E-10	1.827782	0.1000044	9.45348E-05	1.827782
1.7995	3.408E-10	1.852383	0.1000047	9.5141E-05	1.852383
1.9995	3.327E-10	1.876909	0.1000041	9.57469E-05	1.876909
2.19946	3.285E-10	1.901417	0.100004	9.63545E-05	1.901417
2.3995	3.347E-10	1.926028	0.100004	9.6964E-05	1.926028
2.59952	3.377E-10	1.950545	0.1000041	9.75724E-05	1.950545
2.79949	3.57E-10	1.975064	0.1000041	9.81839E-05	1.975064
2.99946	3.443E-10	1.999611	0.1000041	9.87948E-05	1.999611
3.1995	3.605E-10	2.024126	0.100004	9.94065E-05	2.024126
3.3995	3.57E-10	2.048658	0.1000044	0.0001000166	2.048658
3.5995	3.515E-10	2.073182	0.1000036	0.0001006271	2.073182
3.7995	3.141E-10	2.13281	0.100004	0.0001012283	2.13281
3.9995	3.547E-10	2.157347	0.1000035	0.0001018376	2.157347
4.19949	3.357E-10	2.18188	0.1000035	0.0001024439	2.18188
4.39948	3.562E-10	2.206401	0.1000037	0.0001030482	2.206401
4.5995	3.754E-10	2.230981	0.1000038	0.0001036512	2.230981
4.79951	3.759E-10	2.255584	0.1000029	0.0001042493	2.255584
4.99948	3.399E-10	2.285149	0.0999999	0.000104921	2.285149
5.19948	3.656E-10	2.309719	0.1000001	0.000105515	2.309719
5.39949	3.733E-10	2.334248	0.1	0.000106105	2.334248
5.5995	3.953E-10	2.358766	0.1000001	0.000106692	2.358766
5.7995	3.754E-10	2.383293	0.1	0.000107276	2.383293
5.99951	3.708E-10	2.407798	0.1	0.000107854	2.407798
6.19951	4.084E-10	2.432328	0.1	0.00010843	2.432328
6.39948	4.086E-10	2.456807	0.1	0.000109003	2.456807
6.59949	3.872E-10	2.481356	0.0999999	0.000109571	2.481356
6.79951	3.978E-10	2.505884	0.1	0.000110139	2.505884
6.99948	4.076E-10	2.530424	0.0999999	0.000110703	2.530424
7.19949	4.193E-10	2.554923	0.1	0.000111259	2.554923
7.39949	4.033E-10	2.579465	0.0999995	0.000111814	2.579465
7.5995	3.668E-10	2.637357	0.1000002	0.00011236	2.637357
7.79951	3.813E-10	2.661961	0.1	0.000112913	2.661961
7.99949	3.925E-10	2.686499	0.0999998	0.000113458	2.686499
8.19949	4.113E-10	2.711013	0.0999998	0.000114	2.711013
8.3995	4.123E-10	2.735587	0.1	0.000114538	2.735587
8.59951	5.125E-10	2.760068	0.1000001	0.000115071	2.760068
8.7995	4.358E-10	2.784607	0.1	0.000115607	2.784607
8.9995	4.338E-10	2.809171	0.0999999	0.000116133	2.809171
9.19948	4.363E-10	2.833687	0.0999999	0.000116663	2.833687
9.3995	4.457E-10	2.858207	0.1000001	0.000117189	2.858207
9.5995	4.393E-10	2.882739	0.1000001	0.00011771	2.882739
9.7995	4.334E-10	2.907263	0.0999999	0.000118235	2.907263
9.9995	4.398E-10	2.931905	0.0999998	0.000118754	2.931905
9.9995	4.054E-10	2.955253	0.0999999	0.000118754	2.955253
9.7995	2.924E-10	2.979787	0.0999999	0.000118236	2.979787
9.59949	2.423E-10	3.004321	0.1	0.000117714	3.004321
9.39949	2.375E-10	3.028851	0.0999999	0.000117192	3.028851
9.1995	2.048E-10	3.053361	0.1000001	0.000116666	3.053361
8.99949	1.721E-10	3.077905	0.0999999	0.000116139	3.077905
8.79949	2.146E-10	3.136248	0.0999999	0.000115602	3.136248
8.5995	6.92E-11	3.160764	0.1000001	0.000115062	3.160764
8.39951	8.55E-11	3.185297	0.1	0.000114518	3.185297
8.19949	1.155E-10	3.209821	0.0999997	0.000113968	3.209821
7.99949	1.089E-10	3.234414	0.0999999	0.000113417	3.234414
7.79952	7.43E-11	3.259033	0.0999999	0.000112861	3.259033
7.5995	6.9E-11	3.283551	0.0999997	0.000112304	3.283551
7.39953	5.78E-11	3.308141	0.1000002	0.000111743	3.308141
7.1995	4.66E-11	3.332654	0.1	0.000111179	3.332654
6.99952	4.87E-11	3.357184	0.1000002	0.000110613	3.357184
6.7995	3.63E-11	3.3817	0.1	0.000110046	3.3817
6.59951	9.5E-12	3.406224	0.1	0.000109472	3.406224
6.39947	1.45E-11	3.430732	0.1	0.000108898	3.430732
6.19952	3.93E-11	3.455244	0.1000001	0.000108317	3.455244
5.99949	-1.7E-12	3.479759	0.1000003	0.000107735	3.479759
5.79951	-3.3E-11	3.504307	0.0999998	0.00010715	3.504307
5.59951	-2.34E-11	3.52883	0.1000001	0.000106558	3.52883
5.39948	-2E-12	3.553351	0.1	0.000105967	3.553351
5.19948	-3.51E-11	3.57787	0.1	0.000105371	3.57787
4.99951	1.57E-11	3.637864	0.1000002	0.000104773	3.637864
4.7995	-1.94E-11	3.662383	0.0999999	0.000104173	3.662383
4.59951	-4.09E-11	3.686949	0.1000003	0.000103568	3.686949
4.3995	-4.07E-11	3.711486	0.1	0.000102962	3.711486
4.1995	-4.11E-11	3.736068	0.1	0.000102352	3.736068
3.99949	-6.02E-11	3.760607	0.0999997	0.000101741	3.760607
3.79949	-8.58E-11	3.785092	0.1000001	0.000101128	3.785092
3.59951	-7.73E-11	3.80968	0.0999997	0.000100517	3.80968
3.39951	-4.99E-11	3.834185	0.1000001	9.9901E-05	3.834185
3.1995	-8.87E-11	3.858707	0.0999996	9.9286E-05	3.858707
2.99951	-1.012E-10	3.883232	0.0999999	9.8671E-05	3.883232
2.79952	-8.93E-11	3.907777	0.0999999	9.8059E-05	3.907777
2.59951	-9.75E-11	3.932372	0.0999999	9.7445E-05	3.932372
2.3995	-1.078E-10	3.956909	0.1000001	9.6832E-05	3.956909
2.19949	-1.258E-10	3.981428	0.0999998	9.6219E-05	3.981428
1.9995	-1.247E-10	4.005973	0.0999998	9.5609E-05	4.005973
1.7995	-1.195E-10	4.030483	0.0999999	9.4999E-05	4.030483
1.59951	-1.193E-10	4.054998	0.1000002	9.4395E-05	4.054998
1.39951	-1.335E-10	4.079532	0.1000001	9.379E-05	4.079532
1.19949	-8.88E-11	4.139646	0.0999999	9.3192E-05	4.139646
0.99951	-1.371E-10	4.164206	0.1000001	9.259E-05	4.164206
0.79949	-6.35E-11	4.188744	0.1	9.1991E-05	4.188744
0.59951	-1.146E-10	4.213278	0.1000002	9.1394E-05	4.213278
0.39953	-1.399E-10	4.237858	0.1	9.0802E-05	4.237858
0.1995	-1.555E-10	4.26247	0.0999999	9.0212E-05	4.26247
-0.00049	-1.474E-10	4.286993	0.0999999	8.9627E-05	4.286993
-0.20049	-1.539E-10	4.311558	0.0999998	8.9048E-05	4.311558
-0.40048	-1.643E-10	4.336092	0.1	8.8479E-05	4.336092
-0.60049	-1.617E-10	4.360618	0.1	8.792E-05	4.360618
-0.8005	-1.513E-10	4.388492	0.1000061	8.72953E-05	4.388492
-1.00048	-1.688E-10	4.413	0.1000055	8.67624E-05	4.413
-1.20047	-1.845E-10	4.437532	0.1000049	8.62373E-05	4.437532
-1.4005	-2.045E-10	4.462047	0.1000049	8.57168E-05	4.462047
-1.60047	-1.926E-10	4.486767	0.1000051	8.52013E-05	4.486767
-1.80049	-1.932E-10	4.511312	0.1000059	8.46864E-05	4.511312
-2.00049	-2.047E-10	4.535837	0.1000053	8.41714E-05	4.535837
-2.20048	-2.13E-10	4.560354	0.1000057	8.3656E-05	4.560354
-2.40049	-3.38E-10	4.584877	0.1000048	8.31401E-05	4.584877
-2.60046	-1.961E-10	4.643953	0.1000048	8.26258E-05	4.643953
-2.80049	-2.019E-10	4.668505	0.100005	8.21077E-05	4.668505
-3.00048	-1.927E-10	4.693033	0.1000048	8.15899E-05	4.693033
-3.20049	-2.275E-10	4.717573	0.1000039	8.10698E-05	4.717573
-3.40049	-2.449E-10	4.742144	0.1000054	8.05517E-05	4.742144
-3.60049	-2.203E-10	4.766668	0.1000044	8.00311E-05	4.766668
-3.80049	-2.384E-10	4.791188	0.1000055	7.95079E-05	4.791188
-4.00049	-2.273E-10	4.815795	0.1000053	7.89852E-05	4.815795
-4.2005	-2.489E-10	4.840307	0.1000053	7.84614E-05	4.840307
-4.4005	-2.608E-10	4.864913	0.1000049	7.79355E-05	4.864913
-4.60049	-2.474E-10	4.889443	0.1000055	7.74089E-05	4.889443
-4.80046	-2.433E-10	4.913966	0.1000053	7.68801E-05	4.913966
-5.00048	-2.542E-10	4.938576	0.1000049	7.63495E-05	4.938576
-5.20049	-2.717E-10	4.963088	0.1000058	7.58189E-05	4.963088
-5.40049	-2.732E-10	4.987869	0.1000049	7.52848E-05	4.987869
-5.60049	-2.551E-10	5.012388	0.1000062	7.47501E-05	5.012388
-5.80048	-2.556E-10	5.036926	0.1000056	7.42138E-05	5.036926
-6.00049	-2.93E-10	5.061434	0.1000059	7.36756E-05	5.061434
-6.20048	-2.938E-10	5.085979	0.1000053	7.31352E-05	5.085979
-6.40049	-2.281E-10	5.142691	0.1000057	7.25953E-05	5.142691
-6.60049	-2.68E-10	5.167228	0.1000061	7.20509E-05	5.167228
-6.80049	-2.607E-10	5.191746	0.1000049	7.15043E-05	5.191746
-7.0005	-2.603E-10	5.21628	0.1000047	7.09571E-05	5.21628
-7.20047	-2.954E-10	5.240836	0.1000058	7.04079E-05	5.240836
-7.40048	-2.928E-10	5.265444	0.1000053	6.98555E-05	5.265444
-7.60048	-2.737E-10	5.290058	0.1000057	6.93023E-05	5.290058
-7.80047	-2.894E-10	5.314631	0.1000062	6.87469E-05	5.314631
-8.00047	-3.105E-10	5.339161	0.1000062	6.81893E-05	5.339161
-8.20048	-3.109E-10	5.363667	0.1000061	6.76294E-05	5.363667
-8.40045	-3.138E-10	5.388201	0.100006	6.70679E-05	5.388201
-8.60048	-2.991E-10	5.412711	0.1000059	6.65051E-05	5.412711
-8.80045	-3.048E-10	5.437244	0.1000062	6.59384E-05	5.437244
-9.00048	-3.262E-10	5.46175	0.1000046	6.537E-05	5.46175
-9.20047	-3.286E-10	5.486277	0.1000055	6.48033E-05	5.486277
-9.40049	-3.158E-10	5.510829	0.1000057	6.42318E-05	5.510829
-9.60047	-3.073E-10	5.535358	0.100007	6.3659E-05	5.535358
-9.80047	-3.28E-10	5.559885	0.1000067	6.30878E-05	5.559885
-10.00047	-2.493E-10	5.584429	0.100007	6.25136E-05	5.584429
-10.20048	-2.633E-10	5.644603	0.1000058	6.19436E-05	5.644603
-10.40049	-3.039E-10	5.669122	0.1000072	6.13659E-05	5.669122
-10.6005	-2.996E-10	5.693673	0.1000062	6.07849E-05	5.693673
-10.80047	-3.231E-10	5.718192	0.1000072	6.02028E-05	5.718192
-11.00046	-3.245E-10	5.742784	0.100006	5.96183E-05	5.742784
-11.20048	-3.36E-10	5.767303	0.1000069	5.90312E-05	5.767303
-11.40047	-3.388E-10	5.79189	0.1000063	5.84434E-05	5.79189
-11.60048	-3.247E-10	5.816463	0.1000069	5.78537E-05	5.816463
-11.80047	-3.503E-10	5.840976	0.1000058	5.72617E-05	5.840976
-12.00047	-3.66E-10	5.865486	0.1000066	5.66681E-05	5.865486
#scan	iMeasureCycle=2	iMux=0	time=279.683	N=222	LocalTime=22/06/2023 02:55:29
#VGate(V)	IGate(A)	time(s)	VDrain(V)	IDrain(A)	time(s)
-12.00048	-6.45E-11	279.690628	0.1000061	5.67561E-05	279.690628
-11.80049	-1.285E-10	279.715606	0.1000065	5.73524E-05	279.715606
-11.60049	-3.37E-11	279.741198	0.1000055	5.79464E-05	279.741198
-11.40047	2.83E-11	279.765731	0.100007	5.85405E-05	279.765731
-11.2005	4.12E-11	279.790243	0.1000061	5.9131E-05	279.790243
-11.00046	5.16E-11	279.814795	0.1000054	5.97192E-05	279.814795
-10.8005	6.4E-11	279.839251	0.100006	6.03054E-05	279.839251
-10.60047	5.03E-11	279.863765	0.1000066	6.0891E-05	279.863765
-10.40049	8.27E-11	279.888283	0.1000065	6.14739E-05	279.888283
-10.2005	1.147E-10	279.912904	0.1000067	6.20544E-05	279.912904
-10.00048	8.49E-11	279.937427	0.1000054	6.26344E-05	279.937427
-9.80048	8.21E-11	279.961971	0.1000059	6.32132E-05	279.961971
-9.6005	1.26E-10	279.986581	0.1000062	6.37881E-05	279.986581
-9.4005	1.329E-10	280.011106	0.1000063	6.43643E-05	280.011106
-9.20047	1.189E-10	280.0357	0.1000059	6.49358E-05	280.0357
-9.00047	1.096E-10	280.06024	0.1000064	6.55032E-05	280.06024
-8.80048	1.449E-10	280.084752	0.1000065	6.60683E-05	280.084752
-8.6005	1.509E-10	280.109259	0.100006	6.66304E-05	280.109259
-8.40051	1.46E-10	280.133776	0.1000049	6.71914E-05	280.133776
-8.20049	1.586E-10	280.15829	0.1000061	6.7749E-05	280.15829
-8.00048	1.39E-10	280.182788	0.1000059	6.83055E-05	280.182788
-7.8005	1.521E-10	280.207323	0.1000056	6.88609E-05	280.207323
-7.60049	1.19E-10	280.254056	0.1000066	6.94113E-05	280.254056
-7.40048	1.386E-10	280.278592	0.1000058	6.99634E-05	280.278592
-7.20047	1.702E-10	280.303113	0.1000064	7.05144E-05	280.303113
-7.0005	1.784E-10	280.327715	0.1000058	7.1063E-05	280.327715
-6.80049	1.787E-10	280.352384	0.1000052	7.16091E-05	280.352384
-6.60049	1.761E-10	280.376915	0.1000062	7.21552E-05	280.376915
-6.40049	1.774E-10	280.401461	0.1000053	7.26972E-05	280.401461
-6.20051	2.012E-10	280.425978	0.1000046	7.32384E-05	280.425978
-6.0005	2.101E-10	280.450497	0.1000065	7.37794E-05	280.450497
-5.80049	2.064E-10	280.475011	0.1000049	7.43158E-05	280.475011
-5.6005	2.06E-10	280.499534	0.1000059	7.48521E-05	280.499534
-5.4005	2.038E-10	280.524049	0.1000047	7.53864E-05	280.524049
-5.20051	2.224E-10	280.548564	0.1000059	7.59199E-05	280.548564
-5.0005	2.471E-10	280.573076	0.1000061	7.64503E-05	280.573076
-4.80046	2.141E-10	280.597602	0.100005	7.69809E-05	280.597602
-4.60048	2.038E-10	280.622067	0.1000064	7.75095E-05	280.622067
-4.40053	2.427E-10	280.646601	0.1000047	7.8035E-05	280.646601
-4.2005	2.587E-10	280.671108	0.1000058	7.85621E-05	280.671108
-4.00051	2.304E-10	280.695723	0.1000055	7.90852E-05	280.695723
-3.8005	3.104E-10	280.755611	0.100005	7.96044E-05	280.755611
-3.60051	2.239E-10	280.780143	0.1000055	8.01288E-05	280.780143
-3.40049	2.341E-10	280.804669	0.1000055	8.0649E-05	280.804669
-3.20049	2.566E-10	280.829193	0.1000057	8.11694E-05	280.829193
-3.00051	2.574E-10	280.853768	0.1000066	8.16896E-05	280.853768
-2.80048	2.443E-10	280.878276	0.1000052	8.22077E-05	280.878276
-2.60049	2.452E-10	280.902832	0.1000053	8.27258E-05	280.902832
-2.40049	2.77E-10	280.927436	0.1000059	8.32438E-05	280.927436
-2.20049	2.916E-10	280.951977	0.100006	8.37596E-05	280.951977
-2.0005	2.646E-10	280.976485	0.1000049	8.42747E-05	280.976485
-1.80048	2.509E-10	281.001011	0.1000049	8.47904E-05	281.001011
-1.60051	2.95E-10	281.025614	0.1000054	8.53058E-05	281.025614
-1.40051	3.043E-10	281.050167	0.1000052	8.58254E-05	281.050167
-1.20054	2.788E-10	281.074683	0.1000059	8.63482E-05	281.074683
-1.00049	2.906E-10	281.099219	0.1000055	8.68792E-05	281.099219
-0.8005	2.891E-10	281.123725	0.1000045	8.74202E-05	281.123725
-0.60048	2.909E-10	281.148251	0.100005	8.79717E-05	281.148251
-0.40051	3.197E-10	281.172765	0.1000057	8.85363E-05	281.172765
-0.2005	2.082E-10	281.197284	0.1000049	8.91092E-05	281.197284
-0.00051	2.211E-10	281.257219	0.1000044	8.96843E-05	281.257219
0.19948	2.584E-10	281.281745	0.1000044	9.02729E-05	281.281745
0.3995	3.002E-10	281.306275	0.1000044	9.08628E-05	281.306275
0.59949	3.074E-10	281.330793	0.1000041	9.14556E-05	281.330793
0.7995	2.902E-10	281.355447	0.100005	9.20512E-05	281.355447
0.9995	3.014E-10	281.379919	0.1000047	9.26484E-05	281.379919
1.19948	3.111E-10	281.40446	0.1000042	9.3247E-05	281.40446
1.39951	3.253E-10	281.428968	0.1000041	9.38486E-05	281.428968
1.59948	3.259E-10	281.453517	0.1000044	9.44529E-05	281.453517
1.79949	3.216E-10	281.478019	0.1000043	9.50563E-05	281.478019
1.99951	3.22E-10	281.502528	0.1000043	9.56647E-05	281.502528
2.19951	3.426E-10	281.527031	0.1000048	9.62729E-05	281.527031
2.3995	3.743E-10	281.551573	0.1000042	9.68826E-05	281.551573
2.5995	3.322E-10	281.576091	0.1000041	9.74935E-05	281.576091
2.7995	3.11E-10	281.60062	0.1000043	9.8105E-05	281.60062
2.9995	3.688E-10	281.62513	0.1000039	9.8716E-05	281.62513
3.19951	3.791E-10	281.649749	0.1000043	9.9327E-05	281.649749
3.39949	3.439E-10	281.674248	0.1000037	9.99395E-05	281.674248
3.59951	3.446E-10	281.698849	0.1000048	0.000100551	281.698849
3.7995	2.956E-10	281.759273	0.1000044	0.000101155	281.759273
3.99949	3.383E-10	281.783818	0.1000035	0.0001017648	281.783818
4.19949	3.393E-10	281.808333	0.1000036	0.000102371	281.808333
4.39949	3.704E-10	281.832856	0.1000028	0.0001029775	281.832856
4.59952	3.568E-10	281.857417	0.1000037	0.0001035816	281.857417
4.79949	3.433E-10	281.881935	0.1000043	0.0001041825	281.881935
4.99948	3.732E-10	281.911514	0.1	0.000104857	281.911514
5.19948	3.534E-10	281.936059	0.0999998	0.00010545	281.936059
5.39948	3.557E-10	281.960578	0.0999998	0.00010604	281.960578
5.5995	3.835E-10	281.985137	0.1	0.000106629	281.985137
5.79948	3.912E-10	282.009727	0.1000001	0.000107212	282.009727
5.9995	3.773E-10	282.034342	0.1	0.000107793	282.034342
6.1995	3.84E-10	282.058895	0.0999998	0.000108369	282.058895
6.39947	4.007E-10	282.083389	0.0999997	0.000108943	282.083389
6.59949	3.883E-10	282.107914	0.1000001	0.000109514	282.107914
6.7995	4.016E-10	282.132422	0.0999999	0.000110079	282.132422
6.99949	4.75E-10	282.156958	0.1	0.000110645	282.156958
7.19949	4.068E-10	282.181464	0.0999999	0.000111203	282.181464
7.39949	4.088E-10	282.205994	0.1	0.00011176	282.205994
7.59951	3.493E-10	282.263424	0.0999999	0.000112308	282.263424
7.79949	3.9E-10	282.287965	0.1000001	0.000112861	282.287965
7.99948	4.119E-10	282.312508	0.0999999	0.000113408	282.312508
8.19948	3.954E-10	282.337015	0.1	0.00011395	282.337015
8.3995	3.871E-10	282.361644	0.1	0.000114491	282.361644
8.59952	4.212E-10	282.386147	0.1	0.000115028	282.386147
8.79951	4.431E-10	282.410679	0.0999997	0.00011556	282.410679
8.99949	4.124E-10	282.435192	0.0999998	0.000116089	282.435192
9.19949	3.926E-10	282.459712	0.1	0.000116617	282.459712
9.39947	3.229E-10	282.484225	0.0999997	0.000117145	282.484225
9.59948	4.218E-10	282.508746	0.1000002	0.000117669	282.508746
9.7995	4.078E-10	282.533349	0.0999998	0.000118192	282.533349
9.99949	4.248E-10	282.557867	0.1	0.000118709	282.557867
9.9995	3.513E-10	282.581221	0.1000001	0.000118709	282.581221
9.7995	2.824E-10	282.605749	0.1	0.000118192	282.605749
9.59948	2.721E-10	282.630255	0.1	0.000117672	282.630255
9.3995	2.121E-10	282.654779	0.1	0.00011715	282.654779
9.19951	1.605E-10	282.679297	0.1	0.000116622	282.679297
8.9995	1.717E-10	282.703919	0.1000001	0.000116093	282.703919
8.79952	1.878E-10	282.761871	0.1000001	0.000115558	282.761871
8.5995	1.454E-10	282.786396	0.1	0.000115017	282.786396
8.39953	1.524E-10	282.810915	0.1000002	0.00011447	282.810915
8.1995	1.065E-10	282.835435	0.0999999	0.000113921	282.835435
7.99949	7.22E-11	282.860085	0.1	0.000113369	282.860085
7.79952	8.64E-11	282.88461	0.0999998	0.000112813	282.88461
7.5995	9.56E-11	282.909151	0.0999999	0.000112256	282.909151
7.39952	5.82E-11	282.933669	0.1000002	0.000111695	282.933669
7.19948	2.8E-11	282.958201	0.1	0.000111132	282.958201
6.99949	5.47E-11	282.98272	0.0999999	0.000110566	282.98272
6.79951	3.88E-11	283.007231	0.0999998	0.000109997	283.007231
6.59949	2.55E-11	283.031857	0.0999997	0.000109425	283.031857
6.39949	2.5E-12	283.056384	0.1	0.000108847	283.056384
6.19951	1.36E-11	283.080989	0.0999998	0.000108269	283.080989
5.99949	5.2E-12	283.105505	0.1	0.000107685	283.105505
5.79952	3E-13	283.130021	0.0999999	0.000107099	283.130021
5.59949	-8.5E-12	283.154535	0.1000001	0.000106507	283.154535
5.39952	-3.96E-11	283.179072	0.0999999	0.000105914	283.179072
5.19952	-3.34E-11	283.203587	0.1000002	0.000105318	283.203587
4.9995	2.67E-11	283.263615	0.0999999	0.000104721	283.263615
4.79949	3.9E-12	283.288146	0.0999998	0.000104119	283.288146
4.5995	-3.69E-11	283.312657	0.0999997	0.000103514	283.312657
4.39948	-5.29E-11	283.337169	0.0999998	0.000102906	283.337169
4.19948	-4.42E-11	283.361848	0.1	0.000102297	283.361848
3.99952	-5.61E-11	283.386387	0.1000001	0.000101685	283.386387
3.79949	-5.76E-11	283.410919	0.0999998	0.000101073	283.410919
3.59951	-6.75E-11	283.435453	0.1000001	0.00010046	283.435453
3.3995	-9.9E-11	283.459961	0.1	9.9845E-05	283.459961
3.19952	-8.21E-11	283.484504	0.0999999	9.923E-05	283.484504
2.99951	-7.21E-11	283.509017	0.1	9.8614E-05	283.509017
2.79949	-9.28E-11	283.533539	0.1000002	9.8E-05	283.533539
2.59951	-1.223E-10	283.558078	0.1000002	9.7386E-05	283.558078
2.3995	3.83E-11	283.58261	0.1000003	9.6774E-05	283.58261
2.19949	-8.67E-11	283.607126	0.0999998	9.6163E-05	283.607126
1.99951	-1.004E-10	283.631678	0.0999999	9.555E-05	283.631678
1.79949	-1.243E-10	283.656197	0.0999998	9.4943E-05	283.656197
1.59952	-1.34E-10	283.680742	0.0999999	9.4335E-05	283.680742
1.39952	-1.138E-10	283.70534	0.1	9.373E-05	283.70534
1.19952	-6.71E-11	283.765329	0.0999999	9.3131E-05	283.765329
0.99952	-9.97E-11	283.78986	0.0999999	9.253E-05	283.78986
0.79949	-1.21E-10	283.814376	0.0999998	9.1931E-05	283.814376
0.5995	-1.55E-10	283.838904	0.0999999	9.1334E-05	283.838904
0.39952	-3.013E-10	283.863463	0.1000002	9.0742E-05	283.863463
0.19951	-1.294E-10	283.888015	0.0999999	9.015E-05	283.888015
-0.00047	-1.593E-10	283.912536	0.1	8.9564E-05	283.912536
-0.20051	-1.476E-10	283.940429	0.1000037	8.89055E-05	283.940429
-0.40049	-1.632E-10	283.964974	0.1000045	8.83372E-05	283.964974
-0.60049	-1.672E-10	283.989666	0.1000054	8.77782E-05	283.989666
-0.80049	-1.726E-10	284.014207	0.1000049	8.72333E-05	284.014207
-1.00048	-2.055E-10	284.038809	0.1000047	8.66998E-05	284.038809
-1.20048	-1.961E-10	284.063335	0.1000054	8.61742E-05	284.063335
-1.40049	-1.682E-10	284.087866	0.1000043	8.5656E-05	284.087866
-1.60047	-1.85E-10	284.112382	0.1000047	8.51392E-05	284.112382
-1.80049	-2.133E-10	284.136896	0.1000055	8.46251E-05	284.136896
-2.00048	-2.213E-10	284.161402	0.1000039	8.41091E-05	284.161402
-2.20049	-1.962E-10	284.185949	0.1000052	8.35949E-05	284.185949
-2.40051	-1.921E-10	284.210459	0.1000043	8.30797E-05	284.210459
-2.6005	-1.426E-10	284.269853	0.1000054	8.25648E-05	284.269853
-2.80049	-1.85E-10	284.294422	0.100005	8.20474E-05	284.294422
-3.00048	-2.353E-10	284.318977	0.1000052	8.15286E-05	284.318977
-3.2005	-2.065E-10	284.343517	0.1000058	8.10115E-05	284.343517
-3.40049	-1.948E-10	284.368119	0.100005	8.04913E-05	284.368119
-3.60048	-2.294E-10	284.392645	0.1000061	7.99702E-05	284.392645
-3.80048	-2.37E-10	284.41717	0.1000048	7.94479E-05	284.41717
-4.00047	-2.41E-10	284.441674	0.1000061	7.89255E-05	284.441674
-4.20049	-2.191E-10	284.466267	0.1000049	7.84016E-05	284.466267
-4.40047	-2.278E-10	284.490788	0.1000057	7.78755E-05	284.490788
-4.60047	-2.646E-10	284.5153	0.1000051	7.73478E-05	284.5153
-4.80047	-2.547E-10	284.539817	0.1000054	7.68198E-05	284.539817
-5.00049	-2.352E-10	284.564358	0.1000057	7.62896E-05	284.564358
-5.2005	-2.413E-10	284.588882	0.1000051	7.57573E-05	284.588882
-5.40049	-2.658E-10	284.613414	0.1000053	7.52242E-05	284.613414
-5.60049	-2.766E-10	284.637936	0.1000056	7.46901E-05	284.637936
-5.8005	-2.663E-10	284.662466	0.1000058	7.41537E-05	284.662466
-6.00049	-2.568E-10	284.686977	0.1000048	7.36138E-05	284.686977
-6.20048	-2.66E-10	284.711599	0.100005	7.30731E-05	284.711599
-6.40048	-2.01E-10	284.768517	0.1000054	7.25335E-05	284.768517
-6.60049	-2.558E-10	284.793048	0.1000056	7.19885E-05	284.793048
-6.80047	-2.736E-10	284.817573	0.1000053	7.14431E-05	284.817573
-7.00049	-2.766E-10	284.842112	0.1000049	7.08952E-05	284.842112
-7.20048	-2.761E-10	284.866678	0.100005	7.03448E-05	284.866678
-7.40047	-2.636E-10	284.891206	0.1000054	6.97933E-05	284.891206
-7.60048	-3.016E-10	284.915736	0.1000055	6.92394E-05	284.915736
-7.80046	-3.009E-10	284.940235	0.1000058	6.86827E-05	284.940235
-8.00049	-2.835E-10	284.964759	0.1000051	6.81238E-05	284.964759
-8.20048	2.5E-12	284.989282	0.1000053	6.75662E-05	284.989282
-8.40047	-2.89E-10	285.013797	0.1000056	6.70045E-05	285.013797
-8.60048	-3.182E-10	285.03841	0.1000055	6.64403E-05	285.03841
-8.80047	-2.913E-10	285.062938	0.1000062	6.58769E-05	285.062938
-9.00048	-2.71E-10	285.087477	0.1000063	6.53077E-05	285.087477
-9.20045	-3.183E-10	285.112002	0.100007	6.47395E-05	285.112002
-9.40048	-3.042E-10	285.136495	0.1000071	6.41687E-05	285.136495
-9.6005	-3.138E-10	285.161027	0.1000057	6.35962E-05	285.161027
-9.80047	-3.205E-10	285.185508	0.1000075	6.30255E-05	285.185508
-10.00049	-3.039E-10	285.210047	0.1000066	6.24495E-05	285.210047
-10.20048	-2.461E-10	285.270044	0.1000074	6.18814E-05	285.270044
-10.40048	-3.144E-10	285.294623	0.100007	6.13017E-05	285.294623
-10.60046	-3.413E-10	285.31914	0.1000064	6.07218E-05	285.31914
-10.80047	-3.034E-10	285.343652	0.1000068	6.01391E-05	285.343652
-11.00048	-3.015E-10	285.368325	0.1000067	5.95533E-05	285.368325
-11.20048	-3.367E-10	285.39286	0.1000072	5.89677E-05	285.39286
-11.40049	-3.494E-10	285.417408	0.1000067	5.83789E-05	285.417408
-11.60047	-3.31E-10	285.441913	0.1000085	5.77894E-05	285.441913
-11.80049	-3.196E-10	285.466448	0.1000067	5.71969E-05	285.466448
-12.00048	-3.446E-10	285.491057	0.1000062	5.66037E-05	285.491057
#scan	iMeasureCycle=3	iMux=0	time=319.696	N=222	LocalTime=22/06/2023 02:56:09
#VGate(V)	IGate(A)	time(s)	VDrain(V)	IDrain(A)	time(s)
-12.00048	-8.68E-11	319.703711	0.1000053	5.67767E-05	319.703711
-11.8005	-1.08E-11	319.728615	0.1000053	5.73727E-05	319.728615
-11.60049	1.89E-11	319.754226	0.1000053	5.79674E-05	319.754226
-11.40048	4.41E-11	319.778846	0.1000063	5.85605E-05	319.778846
-11.20049	4.13E-11	319.803426	0.1000053	5.91495E-05	319.803426
-11.00049	4.76E-11	319.82794	0.1000073	5.97401E-05	319.82794
-10.80048	8.93E-11	319.852466	0.1000067	6.03269E-05	319.852466
-10.60047	9.68E-11	319.876985	0.1000072	6.09116E-05	319.876985
-10.40048	7.51E-11	319.901503	0.1000068	6.14945E-05	319.901503
-10.2005	9.12E-11	319.926029	0.1000063	6.20762E-05	319.926029
-10.0005	1.206E-10	319.950557	0.100006	6.26549E-05	319.950557
-9.80049	1.175E-10	319.975092	0.1000056	6.32331E-05	319.975092
-9.60052	1.017E-10	319.999712	0.1000055	6.38094E-05	319.999712
-9.40049	1.191E-10	320.024238	0.1000064	6.43843E-05	320.024238
-9.20049	1.385E-10	320.048769	0.1000052	6.49558E-05	320.048769
-9.00049	1.365E-10	320.073301	0.1000061	6.5523E-05	320.073301
-8.80049	1.39E-10	320.09792	0.1000052	6.60889E-05	320.09792
-8.6005	1.549E-10	320.122435	0.1000057	6.66511E-05	320.122435
-8.40049	1.462E-10	320.146951	0.1000047	6.72097E-05	320.146951
-8.20049	1.494E-10	320.171463	0.100006	6.77695E-05	320.171463
-8.00047	1.88E-10	320.195979	0.1000049	6.83257E-05	320.195979
-7.80046	2.229E-10	320.220585	0.1000061	6.88802E-05	320.220585
-7.60048	1.392E-10	320.267543	0.1000063	6.9431E-05	320.267543
-7.40049	1.712E-10	320.292137	0.1000067	6.99844E-05	320.292137
-7.20049	1.798E-10	320.316661	0.1000065	7.05348E-05	320.316661
-7.00049	1.906E-10	320.341211	0.1000062	7.10824E-05	320.341211
-6.80049	1.777E-10	320.365788	0.1000067	7.16299E-05	320.365788
-6.6005	1.972E-10	320.390309	0.1000059	7.21743E-05	320.390309
-6.40048	2.043E-10	320.414823	0.1000054	7.27169E-05	320.414823
-6.2005	2.042E-10	320.439445	0.1000069	7.32596E-05	320.439445
-6.00052	1.908E-10	320.463959	0.1000061	7.37988E-05	320.463959
-5.8005	2.027E-10	320.488478	0.1000048	7.43365E-05	320.488478
-5.60048	9.19E-11	320.512986	0.1000057	7.48722E-05	320.512986
-5.40049	1.9E-10	320.537519	0.1000053	7.54059E-05	320.537519
-5.20048	1.989E-10	320.562029	0.100006	7.59385E-05	320.562029
-5.0005	2.195E-10	320.586538	0.1000052	7.64704E-05	320.586538
-4.80049	2.303E-10	320.611141	0.1000052	7.69994E-05	320.611141
-4.60046	2.333E-10	320.635659	0.1000056	7.75279E-05	320.635659
-4.40049	2.269E-10	320.660187	0.1000047	7.80538E-05	320.660187
-4.20051	2.308E-10	320.684711	0.1000061	7.85792E-05	320.684711
-4.00049	2.504E-10	320.709246	0.1000046	7.91026E-05	320.709246
-3.80048	1.718E-10	320.769168	0.1000058	7.96229E-05	320.769168
-3.60049	2.486E-10	320.793745	0.1000051	8.01441E-05	320.793745
-3.4005	2.302E-10	320.818273	0.1000053	8.06658E-05	320.818273
-3.2005	2.36E-10	320.842804	0.1000055	8.11851E-05	320.842804
-3.00051	2.446E-10	320.867371	0.1000056	8.17046E-05	320.867371
-2.80049	2.619E-10	320.891888	0.100005	8.22228E-05	320.891888
-2.60048	2.611E-10	320.916407	0.1000056	8.27412E-05	320.916407
-2.4005	2.459E-10	320.940923	0.1000046	8.32567E-05	320.940923
-2.20049	2.549E-10	320.965442	0.1000049	8.37721E-05	320.965442
-2.00052	2.754E-10	320.989971	0.1000045	8.42882E-05	320.989971
-1.80051	2.773E-10	321.014499	0.1000049	8.48037E-05	321.014499
-1.60051	2.8E-10	321.03903	0.1000054	8.53207E-05	321.03903
-1.40051	2.704E-10	321.063565	0.1000041	8.58362E-05	321.063565
-1.20048	2.78E-10	321.088083	0.1000046	8.63624E-05	321.088083
-1.0005	2.823E-10	321.112787	0.1000047	8.68931E-05	321.112787
-0.80049	3.007E-10	321.137311	0.100005	8.7433E-05	321.137311
-0.60049	2.902E-10	321.161845	0.1000055	8.79866E-05	321.161845
-0.40049	2.841E-10	321.186359	0.1000041	8.85488E-05	321.186359
-0.2005	3.063E-10	321.210902	0.1000047	8.91233E-05	321.210902
-0.00049	2.504E-10	321.270625	0.1000046	8.96984E-05	321.270625
0.1995	2.765E-10	321.295204	0.100005	9.02854E-05	321.295204
0.39952	2.883E-10	321.319729	0.1000049	9.08778E-05	321.319729
0.59949	2.97E-10	321.344244	0.1000046	9.147E-05	321.344244
0.79949	3.01E-10	321.368814	0.1000045	9.20661E-05	321.368814
0.99949	3.114E-10	321.393333	0.1000041	9.2663E-05	321.393333
1.1995	3.16E-10	321.417864	0.1000037	9.3261E-05	321.417864
1.39949	3.181E-10	321.442475	0.100004	9.38632E-05	321.442475
1.59951	3.163E-10	321.467	0.1000046	9.44671E-05	321.467
1.79949	3.272E-10	321.491524	0.1000043	9.50726E-05	321.491524
1.99949	3.475E-10	321.516061	0.1000039	9.5679E-05	321.516061
2.19951	3.313E-10	321.540575	0.1000045	9.62887E-05	321.540575
2.3995	3.164E-10	321.565103	0.1000038	9.68979E-05	321.565103
2.5995	3.534E-10	321.589622	0.1000045	9.75087E-05	321.589622
2.7995	3.462E-10	321.614147	0.1000041	9.812E-05	321.614147
2.9995	4.628E-10	321.638683	0.1000037	9.87312E-05	321.638683
3.19949	3.648E-10	321.663202	0.1000046	9.93449E-05	321.663202
3.39949	3.634E-10	321.687723	0.1000047	9.99562E-05	321.687723
3.59949	3.668E-10	321.712256	0.1000045	0.0001005681	321.712256
3.7995	3.034E-10	321.772433	0.1000047	0.0001011735	321.772433
3.99953	3.473E-10	321.797012	0.1000041	0.000101781	321.797012
4.19949	3.419E-10	321.821548	0.1000042	0.0001023896	321.821548
4.39953	3.496E-10	321.846069	0.1000045	0.0001029959	321.846069
4.5995	3.632E-10	321.870653	0.1000036	0.0001036006	321.870653
4.79949	3.701E-10	321.895171	0.1000042	0.0001042022	321.895171
4.99949	2.102E-10	321.924853	0.0999999	0.000104875	321.924853
5.1995	3.478E-10	321.94937	0.0999998	0.000105472	321.94937
5.3995	3.684E-10	321.973904	0.1	0.000106063	321.973904
5.59951	3.637E-10	321.998446	0.1000002	0.00010665	321.998446
5.79948	3.632E-10	322.023012	0.1	0.000107235	322.023012
5.99948	3.803E-10	322.04755	0.0999999	0.000107814	322.04755
6.19951	3.717E-10	322.072059	0.1	0.000108392	322.072059
6.3995	3.895E-10	322.0966	0.1000002	0.000108965	322.0966
6.59949	3.858E-10	322.121196	0.0999998	0.000109536	322.121196
6.79949	3.724E-10	322.145737	0.1000001	0.000110102	322.145737
6.9995	4.013E-10	322.170242	0.0999999	0.000110665	322.170242
7.19949	4.168E-10	322.19477	0.1000001	0.000111225	322.19477
7.39947	3.888E-10	322.219304	0.0999998	0.00011178	322.219304
7.59951	3.507E-10	322.276649	0.1000001	0.000112332	322.276649
7.79952	3.809E-10	322.30123	0.1	0.000112883	322.30123
7.99948	3.735E-10	322.325731	0.1	0.000113431	322.325731
8.1995	4.053E-10	322.350279	0.1	0.000113975	322.350279
8.39949	4.22E-10	322.374875	0.1	0.000114512	322.374875
8.5995	3.947E-10	322.399383	0.1000001	0.000115047	322.399383
8.7995	3.927E-10	322.423891	0.0999999	0.000115582	322.423891
8.9995	4.314E-10	322.448484	0.1000001	0.000116112	322.448484
9.19951	4.239E-10	322.473001	0.1	0.000116639	322.473001
9.39949	4.085E-10	322.497517	0.0999999	0.000117167	322.497517
9.59951	4.294E-10	322.522014	0.1	0.00011769	322.522014
9.7995	4.191E-10	322.546585	0.1000003	0.000118214	322.546585
9.99948	4.323E-10	322.571115	0.1	0.000118731	322.571115
9.99949	3.904E-10	322.59448	0.0999998	0.000118732	322.59448
9.79951	2.799E-10	322.618987	0.0999999	0.000118213	322.618987
9.59949	2.332E-10	322.643563	0.1	0.000117693	322.643563
9.39953	2.174E-10	322.668075	0.1000003	0.000117173	322.668075
9.1995	1.939E-10	322.692581	0.1	0.000116644	322.692581
8.99949	1.779E-10	322.7171	0.0999999	0.000116117	322.7171
8.79952	2.096E-10	322.775838	0.1000002	0.00011558	322.775838
8.5995	1.405E-10	322.800423	0.0999999	0.000115037	322.800423
8.3995	1.072E-10	322.824936	0.1000001	0.000114493	322.824936
8.19949	1.166E-10	322.849541	0.0999999	0.000113943	322.849541
7.99947	1.145E-10	322.874107	0.1000001	0.00011339	322.874107
7.79949	9.03E-11	322.898636	0.0999998	0.000112837	322.898636
7.59949	4.96E-11	322.923141	0.1000001	0.000112278	322.923141
7.39949	7.18E-11	322.947691	0.0999997	0.000111719	322.947691
7.1995	7.02E-11	322.972477	0.0999999	0.000111155	322.972477
6.99951	4.21E-11	322.996987	0.0999999	0.000110588	322.996987
6.79953	2E-11	323.021507	0.0999999	0.00011002	323.021507
6.59952	1.473E-10	323.046035	0.1000001	0.000109445	323.046035
6.39949	4.57E-11	323.070565	0.1	0.000108868	323.070565
6.19951	2.01E-11	323.095087	0.0999999	0.000108288	323.095087
5.99948	8.8E-12	323.119712	0.0999999	0.000107706	323.119712
5.79954	-1.48E-11	323.144232	0.0999998	0.000107118	323.144232
5.5995	-1.2E-12	323.168771	0.0999999	0.000106531	323.168771
5.39951	1E-13	323.193291	0.1000001	0.000105938	323.193291
5.19947	-2.18E-11	323.217817	0.1000002	0.000105341	323.217817
4.99952	1.86E-11	323.277521	0.0999998	0.000104744	323.277521
4.79951	-2.37E-11	323.30211	0.1	0.000104144	323.30211
4.59948	-1.245E-10	323.326622	0.0999997	0.000103538	323.326622
4.3995	-7.07E-11	323.351247	0.0999999	0.00010293	323.351247
4.19951	-6.17E-11	323.375842	0.1	0.000102321	323.375842
3.9995	-5.77E-11	323.400343	0.1000001	0.000101711	323.400343
3.7995	-8.34E-11	323.424847	0.1	0.000101096	323.424847
3.59952	-7.94E-11	323.449462	0.1	0.000100484	323.449462
3.39949	-8.04E-11	323.474271	0.0999998	9.9868E-05	323.474271
3.19951	-7.43E-11	323.498797	0.1000001	9.9253E-05	323.498797
2.99951	-1.088E-10	323.523332	0.0999998	9.8638E-05	323.523332
2.7995	-1.08E-10	323.547861	0.0999998	9.8022E-05	323.547861
2.5995	-8.51E-11	323.5724	0.1	9.7409E-05	323.5724
2.39951	-1.068E-10	323.596914	0.1000002	9.6797E-05	323.596914
2.19951	-1.24E-10	323.621434	0.1000001	9.6181E-05	323.621434
1.99952	-1.258E-10	323.645957	0.1	9.5573E-05	323.645957
1.7995	-1.113E-10	323.670476	0.1	9.4964E-05	323.670476
1.59951	-1.135E-10	323.695	0.1000001	9.4357E-05	323.695
1.39949	-1.499E-10	323.719538	0.0999998	9.3751E-05	323.719538
1.19951	-7.19E-11	323.779127	0.1000002	9.3153E-05	323.779127
0.99951	-1.323E-10	323.80372	0.0999999	9.2551E-05	323.80372
0.79948	-1.424E-10	323.82823	0.0999999	9.1954E-05	323.82823
0.59952	-1.11E-10	323.852772	0.0999998	9.1356E-05	323.852772
0.39952	-1.481E-10	323.877349	0.1000001	9.0761E-05	323.877349
0.1995	-1.608E-10	323.901862	0.0999999	9.0173E-05	323.901862
-0.00049	-1.65E-10	323.926366	0.1	8.9586E-05	323.926366
-0.20051	-1.496E-10	323.95094	0.0999999	8.9005E-05	323.95094
-0.40048	-1.61E-10	323.975743	0.0999999	8.8435E-05	323.975743
-0.60047	-1.782E-10	324.000429	0.1	8.7879E-05	324.000429
-0.80051	-1.522E-10	324.028293	0.1000048	8.72531E-05	324.028293
-1.00049	-1.702E-10	324.052845	0.1000054	8.67216E-05	324.052845
-1.20048	-1.796E-10	324.077368	0.1000059	8.61972E-05	324.077368
-1.40051	-1.943E-10	324.101909	0.1000045	8.56767E-05	324.101909
-1.60052	-2.067E-10	324.126513	0.1000053	8.51623E-05	324.126513
-1.80049	-1.873E-10	324.151048	0.1000051	8.46467E-05	324.151048
-2.00049	-1.905E-10	324.175568	0.1000042	8.41319E-05	324.175568
-2.2005	-2.127E-10	324.200087	0.1000045	8.36175E-05	324.200087
-2.4005	-2.173E-10	324.224611	0.1000049	8.31024E-05	324.224611
-2.60049	-1.69E-10	324.283676	0.1000054	8.25896E-05	324.283676
-2.80052	-1.952E-10	324.308261	0.1000036	8.20713E-05	324.308261
-3.00048	-1.887E-10	324.332823	0.1000052	8.15546E-05	324.332823
-3.20051	-2.042E-10	324.357346	0.1000046	8.10354E-05	324.357346
-3.40051	-2.284E-10	324.381896	0.1000048	8.05164E-05	324.381896
-3.60048	-2.295E-10	324.406418	0.1000046	7.99964E-05	324.406418
-3.8005	-2.068E-10	324.430928	0.1000053	7.94746E-05	324.430928
-4.00049	5E-12	324.45555	0.1000049	7.89523E-05	324.45555
-4.20049	-2.247E-10	324.480104	0.1000051	7.84279E-05	324.480104
-4.40047	-2.341E-10	324.504618	0.1000054	7.79028E-05	324.504618
-4.60045	-2.24E-10	324.529144	0.1000058	7.73769E-05	324.529144
-4.80049	-2.294E-10	324.553748	0.1000056	7.68465E-05	324.553748
-5.0005	-2.549E-10	324.578289	0.100005	7.6318E-05	324.578289
-5.20048	-2.571E-10	324.6028	0.1000063	7.57869E-05	324.6028
-5.40048	-2.481E-10	324.627313	0.1000058	7.52527E-05	324.627313
-5.60048	-2.478E-10	324.65183	0.1000058	7.47184E-05	324.65183
-5.80048	-2.56E-10	324.67636	0.1000054	7.41827E-05	324.67636
-6.00048	-2.665E-10	324.700872	0.100007	7.36448E-05	324.700872
-6.20049	-2.719E-10	324.725403	0.1000058	7.3103E-05	324.725403
-6.40049	-2.328E-10	324.782468	0.100005	7.25629E-05	324.782468
-6.60048	-2.647E-10	324.807037	0.1000049	7.2019E-05	324.807037
-6.80048	-2.626E-10	324.831664	0.1000063	7.14738E-05	324.831664
-7.00047	-2.596E-10	324.856183	0.1000057	7.09254E-05	324.856183
-7.20049	-2.796E-10	324.880774	0.1000057	7.03756E-05	324.880774
-7.40047	-2.825E-10	324.905296	0.1000045	6.98245E-05	324.905296
-7.60046	-2.781E-10	324.929832	0.1000061	6.92712E-05	324.929832
-7.8005	-2.676E-10	324.954343	0.100006	6.87151E-05	324.954343
-8.00048	-2.939E-10	324.979095	0.1000056	6.81579E-05	324.979095
-8.20048	-3.071E-10	325.00363	0.100006	6.75982E-05	325.00363
-8.40051	-2.782E-10	325.02814	0.1000055	6.7037E-05	325.02814
-8.6005	-2.833E-10	325.052686	0.1000056	6.64739E-05	325.052686
-8.80048	-3.118E-10	325.07721	0.1000057	6.59098E-05	325.07721
-9.00048	-2.949E-10	325.101741	0.1000062	6.53427E-05	325.101741
-9.20048	-2.994E-10	325.12633	0.1000066	6.47735E-05	325.12633
-9.4005	-3.145E-10	325.150857	0.100006	6.42027E-05	325.150857
-9.60049	-3.102E-10	325.175378	0.1000049	6.36305E-05	325.175378
-9.80047	-3.05E-10	325.199906	0.1000044	6.30578E-05	325.199906
-10.00047	-3.224E-10	325.224418	0.1000063	6.24834E-05	325.224418
-10.20048	-2.782E-10	325.284207	0.1000059	6.19141E-05	325.284207
-10.40049	-2.821E-10	325.308782	0.1000059	6.13369E-05	325.308782
-10.60048	-2.981E-10	325.33331	0.1000057	6.07567E-05	325.33331
-10.80047	-3.171E-10	325.357831	0.1000068	6.01733E-05	325.357831
-11.00049	-3.32E-10	325.382393	0.1000061	5.95893E-05	325.382393
-11.20047	-3.263E-10	325.406916	0.1000055	5.90019E-05	325.406916
-11.40049	-3.191E-10	325.431456	0.100005	5.84134E-05	325.431456
-11.60048	-3.338E-10	325.456172	0.100006	5.78232E-05	325.456172
-11.80049	-3.316E-10	325.48076	0.1000063	5.72323E-05	325.48076
-12.00049	-3.379E-10	325.50529	0.100005	5.66384E-05	325.50529
