#scan	iMeasureCycle=1	iMux=0	time=0.038	N=222	LocalTime=22/06/2023 05:38:50
#VGate(V)	IGate(A)	time(s)	VDrain(V)	IDrain(A)	time(s)
-12.00049	-3.1911E-09	0.063773	0.1000057	6.27328E-05	0.063773
-11.80051	-3.0659E-09	0.088656	0.1000064	6.33132E-05	0.088656
-11.6005	-1.2891E-09	0.113175	0.1000059	6.38896E-05	0.113175
-11.40049	-5.243E-10	0.137698	0.100006	6.44649E-05	0.137698
-11.20052	-3.754E-10	0.16222	0.1000061	6.50377E-05	0.16222
-11.0005	-2.292E-10	0.186739	0.1000046	6.56064E-05	0.186739
-10.80049	-1.715E-10	0.211244	0.1000057	6.61752E-05	0.211244
-10.60049	-1.227E-10	0.235776	0.1000053	6.67407E-05	0.235776
-10.40048	-1.011E-10	0.260284	0.1000058	6.73048E-05	0.260284
-10.20052	-6.38E-11	0.284811	0.1000063	6.78651E-05	0.284811
-10.00047	-3.73E-11	0.309319	0.1000059	6.84254E-05	0.309319
-9.80048	-1.8E-11	0.333867	0.1000059	6.89835E-05	0.333867
-9.6005	-4.6E-12	0.358443	0.1000063	6.95395E-05	0.358443
-9.40049	1.46E-11	0.383018	0.100006	7.00919E-05	0.383018
-9.20048	2.65E-11	0.407546	0.1000062	7.0644E-05	0.407546
-9.00051	3.76E-11	0.43216	0.100006	7.11888E-05	0.43216
-8.8005	5.84E-11	0.456692	0.1000063	7.17317E-05	0.456692
-8.60046	5.36E-11	0.481217	0.1000056	7.22715E-05	0.481217
-8.4005	5.53E-11	0.505746	0.1000051	7.28099E-05	0.505746
-8.2005	8.43E-11	0.530291	0.1000062	7.33456E-05	0.530291
-8.0005	9.19E-11	0.55484	0.1000058	7.38801E-05	0.55484
-7.8005	9.23E-11	0.579376	0.1000058	7.44114E-05	0.579376
-7.6005	6.09E-11	0.627466	0.1000058	7.4938E-05	0.627466
-7.40049	9.56E-11	0.652088	0.1000061	7.54686E-05	0.652088
-7.20049	9.49E-11	0.676607	0.1000054	7.5996E-05	0.676607
-7.00049	1.342E-10	0.701135	0.1000049	7.65201E-05	0.701135
-6.80046	1.249E-10	0.725702	0.1000062	7.70453E-05	0.725702
-6.60049	1.303E-10	0.750228	0.1000054	7.75676E-05	0.750228
-6.4005	1.545E-10	0.774741	0.1000044	7.80874E-05	0.774741
-6.20049	1.503E-10	0.799258	0.1000054	7.86061E-05	0.799258
-6.00049	1.423E-10	0.823777	0.100005	7.91229E-05	0.823777
-5.80048	1.65E-10	0.848302	0.1000052	7.96371E-05	0.848302
-5.6005	1.787E-10	0.872874	0.1000051	8.01505E-05	0.872874
-5.40048	1.777E-10	0.897402	0.100005	8.06619E-05	0.897402
-5.20049	1.649E-10	0.921914	0.1000055	8.11728E-05	0.921914
-5.0005	1.899E-10	0.946424	0.1000049	8.16812E-05	0.946424
-4.80047	2.039E-10	0.970922	0.1000046	8.21889E-05	0.970922
-4.60049	1.939E-10	0.995441	0.1000049	8.2695E-05	0.995441
-4.4005	3.364E-10	1.019953	0.100006	8.32003E-05	1.019953
-4.20051	2.434E-10	1.044531	0.1000057	8.37032E-05	1.044531
-4.00049	2.221E-10	1.069066	0.1000049	8.42073E-05	1.069066
-3.80051	1.576E-10	1.129056	0.1000055	8.47047E-05	1.129056
-3.6005	2.155E-10	1.153603	0.1000047	8.52053E-05	1.153603
-3.40051	2.129E-10	1.178127	0.1000047	8.57047E-05	1.178127
-3.2005	2.131E-10	1.20265	0.1000056	8.62043E-05	1.20265
-3.00048	2.326E-10	1.227309	0.1000049	8.6702E-05	1.227309
-2.8005	2.394E-10	1.251829	0.100005	8.71983E-05	1.251829
-2.60051	2.399E-10	1.276338	0.1000054	8.76935E-05	1.276338
-2.4005	2.416E-10	1.300858	0.1000051	8.81894E-05	1.300858
-2.20049	2.535E-10	1.325384	0.1000056	8.86811E-05	1.325384
-2.00048	2.541E-10	1.349886	0.1000049	8.91752E-05	1.349886
-1.80049	2.556E-10	1.374468	0.1000047	8.96678E-05	1.374468
-1.60048	2.688E-10	1.399003	0.1000051	9.0164E-05	1.399003
-1.40049	-1.63E-11	1.423535	0.1000046	9.06617E-05	1.423535
-1.2005	2.572E-10	1.448063	0.1000048	9.11656E-05	1.448063
-1.00052	2.665E-10	1.47259	0.1000048	9.16796E-05	1.47259
-0.80049	2.895E-10	1.497118	0.1000042	9.22028E-05	1.497118
-0.60049	2.767E-10	1.521649	0.1000043	9.27366E-05	1.521649
-0.4005	2.706E-10	1.546191	0.1000041	9.32792E-05	1.546191
-0.20049	3.029E-10	1.570724	0.1000041	9.3831E-05	1.570724
-0.00052	2.438E-10	1.63065	0.1000038	9.4379E-05	1.63065
0.19949	2.706E-10	1.655171	0.1000038	9.49402E-05	1.655171
0.3995	2.814E-10	1.679679	0.100004	9.55038E-05	1.679679
0.5995	2.917E-10	1.704189	0.1000046	9.60682E-05	1.704189
0.79948	3.004E-10	1.728755	0.1000043	9.66365E-05	1.728755
0.99949	3.109E-10	1.75328	0.1000041	9.72046E-05	1.75328
1.19949	3.294E-10	1.777786	0.1000039	9.77737E-05	1.777786
1.3995	3.073E-10	1.80231	0.1000035	9.83465E-05	1.80231
1.59953	3.123E-10	1.826815	0.1000042	9.89214E-05	1.826815
1.79951	3.443E-10	1.851351	0.1000037	9.94971E-05	1.851351
1.9995	3.332E-10	1.87594	0.1000043	0.0001000741	1.87594
2.1995	3.308E-10	1.900443	0.1000041	0.0001006534	1.900443
2.3995	3.284E-10	1.92498	0.1000032	0.0001012332	1.92498
2.59951	3.571E-10	1.949506	0.1000037	0.0001018124	1.949506
2.79948	3.542E-10	1.974053	0.1000037	0.0001023938	1.974053
2.99949	3.448E-10	1.998567	0.1000037	0.0001029756	1.998567
3.1995	3.54E-10	2.023094	0.1000039	0.0001035579	2.023094
3.39949	3.612E-10	2.047619	0.1000037	0.0001041396	2.047619
3.5995	2.871E-10	2.130917	0.1000001	0.000104785	2.130917
3.79951	3.25E-10	2.155499	0.1000001	0.000105365	2.155499
3.9995	3.3E-10	2.180002	0.0999998	0.000105945	2.180002
4.19948	3.354E-10	2.204552	0.1	0.000106523	2.204552
4.39948	3.657E-10	2.229116	0.1	0.000107099	2.229116
4.59952	3.602E-10	2.253654	0.0999999	0.000107673	2.253654
4.79948	3.556E-10	2.278169	0.1000001	0.000108242	2.278169
4.9995	3.82E-10	2.302684	0.1	0.000108812	2.302684
5.19952	3.795E-10	2.327196	0.1000002	0.000109378	2.327196
5.39949	3.667E-10	2.351724	0.1000002	0.00010994	2.351724
5.5995	3.921E-10	2.376357	0.0999999	0.000110499	2.376357
5.79948	3.904E-10	2.400884	0.0999999	0.000111055	2.400884
5.99947	5.734E-10	2.42539	0.1000001	0.000111607	2.42539
6.1995	4.091E-10	2.449911	0.1	0.000112157	2.449911
6.39948	4.208E-10	2.47442	0.1	0.000112706	2.47442
6.59949	4.126E-10	2.498919	0.0999999	0.00011325	2.498919
6.7995	3.99E-10	2.523426	0.0999999	0.000113788	2.523426
6.99948	4.166E-10	2.547975	0.1000002	0.000114326	2.547975
7.1995	4.281E-10	2.572511	0.0999998	0.000114861	2.572511
7.3995	3.516E-10	2.635812	0.1000003	0.000115384	2.635812
7.59948	3.807E-10	2.66041	0.1	0.000115914	2.66041
7.7995	3.887E-10	2.684947	0.0999998	0.000116438	2.684947
7.99948	4.166E-10	2.709513	0.1	0.000116958	2.709513
8.1995	4.133E-10	2.734095	0.1	0.000117479	2.734095
8.39949	4.196E-10	2.758611	0.1000002	0.000117994	2.758611
8.59949	4.24E-10	2.783151	0.1	0.000118506	2.783151
8.7995	4.28E-10	2.807662	0.0999999	0.000119016	2.807662
8.99947	3.149E-10	2.832189	0.1	0.00011952	2.832189
9.19948	4.195E-10	2.856714	0.0999999	0.000120026	2.856714
9.3995	4.267E-10	2.881292	0.0999999	0.000120531	2.881292
9.59949	4.374E-10	2.905815	0.1	0.000121033	2.905815
9.79949	4.296E-10	2.93033	0.0999999	0.000121534	2.93033
9.99949	4.648E-10	2.954845	0.1	0.00012203	2.954845
9.99949	3.845E-10	2.9782	0.0999999	0.00012203	2.9782
9.79952	2.854E-10	3.002712	0.1	0.000121535	3.002712
9.59951	2.779E-10	3.027256	0.1000001	0.000121036	3.027256
9.39951	2.362E-10	3.051812	0.0999998	0.000120537	3.051812
9.19951	1.98E-10	3.076389	0.0999999	0.000120031	3.076389
8.99951	2.272E-10	3.135484	0.1000003	0.000119526	3.135484
8.79952	1.819E-10	3.160074	0.1000001	0.000119016	3.160074
8.59952	1.383E-10	3.184602	0.1000001	0.000118497	3.184602
8.39951	1.407E-10	3.209107	0.1	0.000117977	3.209107
8.1995	1.372E-10	3.233677	0.1	0.000117452	3.233677
7.99951	1.033E-10	3.258193	0.1	0.000116923	3.258193
7.79952	8.65E-11	3.282705	0.1	0.000116392	3.282705
7.59955	9.48E-11	3.307215	0.1000003	0.00011586	3.307215
7.39949	6.98E-11	3.331723	0.1	0.000115323	3.331723
7.19948	6.33E-11	3.356245	0.0999999	0.000114785	3.356245
6.99948	6.01E-11	3.380833	0.1	0.000114243	3.380833
6.7995	3.68E-11	3.405348	0.0999999	0.000113697	3.405348
6.59949	3.86E-11	3.429864	0.1	0.000113152	3.429864
6.39948	2.75E-11	3.454382	0.0999998	0.000112602	3.454382
6.1995	2.01E-11	3.478903	0.1	0.000112051	3.478903
5.9995	1.13E-11	3.503402	0.1000001	0.000111494	3.503402
5.79951	-9.7E-12	3.527922	0.1000003	0.000110934	3.527922
5.59952	2.18E-11	3.552557	0.0999999	0.000110372	3.552557
5.39949	-8.8E-12	3.577085	0.0999999	0.000109807	3.577085
5.1995	4.68E-11	3.632762	0.0999999	0.000109241	3.632762
4.99951	-1.32E-11	3.657286	0.1000001	0.000108669	3.657286
4.7995	-2.64E-11	3.681826	0.0999999	0.000108097	3.681826
4.59951	-1.93E-11	3.706349	0.0999999	0.000107521	3.706349
4.3995	-4.21E-11	3.730936	0.0999998	0.000106943	3.730936
4.19951	3.2E-12	3.755439	0.1000001	0.000106365	3.755439
3.99954	-5.6E-11	3.779962	0.0999999	0.000105783	3.779962
3.79952	-6.03E-11	3.804476	0.0999999	0.0001052	3.804476
3.59956	-6.27E-11	3.829007	0.0999999	0.000104614	3.829007
3.39953	-8.2E-11	3.853466	0.1000001	0.00010403	3.853466
3.19954	-7.62E-11	3.878045	0.1000001	0.000103445	3.878045
2.99957	-8.26E-11	3.902555	0.1000001	0.000102859	3.902555
2.79953	-1.006E-10	3.927078	0.1000001	0.000102277	3.927078
2.59956	-9.16E-11	3.951579	0.0999999	0.000101691	3.951579
2.39954	-9.81E-11	3.976126	0.0999999	0.000101107	3.976126
2.19955	-1.18E-10	4.000632	0.1	0.000100526	4.000632
1.99956	-3.99E-11	4.02516	0.1000001	9.9946E-05	4.02516
1.79951	-1.213E-10	4.049719	0.0999999	9.9366E-05	4.049719
1.59951	-1.168E-10	4.074276	0.0999999	9.8787E-05	4.074276
1.3995	-7.04E-11	4.122533	0.0999999	9.8214E-05	4.122533
1.19948	-1.14E-10	4.147118	0.1	9.764E-05	4.147118
0.99948	-1.279E-10	4.17173	0.1000001	9.7067E-05	4.17173
0.7995	-1.373E-10	4.196257	0.1000002	9.6498E-05	4.196257
0.5995	-1.15E-10	4.222408	0.1	9.5929E-05	4.222408
0.3995	-1.408E-10	4.246947	0.0999999	9.5361E-05	4.246947
0.19949	-1.317E-10	4.271481	0.1	9.4798E-05	4.271481
-0.00049	-1.677E-10	4.295982	0.1000001	9.4236E-05	4.295982
-0.2005	-1.579E-10	4.320499	0.0999998	9.3681E-05	4.320499
-0.40049	-1.82E-10	4.345024	0.0999997	9.3132E-05	4.345024
-0.60048	-1.814E-10	4.369638	0.1	9.2593E-05	4.369638
-0.80051	-1.734E-10	4.394221	0.1	9.2066E-05	4.394221
-1.0005	-1.801E-10	4.418749	0.1000001	9.155E-05	4.418749
-1.20048	-1.988E-10	4.443269	0.1	9.1043E-05	4.443269
-1.40049	-2.028E-10	4.467807	0.1	9.0545E-05	4.467807
-1.60047	-1.872E-10	4.492317	0.0999999	9.005E-05	4.492317
-1.8005	-2.051E-10	4.516829	0.1	8.9555E-05	4.516829
-2.00051	-2.279E-10	4.541335	0.0999999	8.9065E-05	4.541335
-2.20051	-1.982E-10	4.565885	0.0999999	8.8572E-05	4.565885
-2.40049	-2.184E-10	4.59042	0.0999999	8.8077E-05	4.59042
-2.60049	-1.782E-10	4.636228	0.1000002	8.7583E-05	4.636228
-2.80049	-1.869E-10	4.664297	0.1000049	8.70096E-05	4.664297
-3.00048	-2.15E-10	4.688835	0.1000047	8.65139E-05	4.688835
-3.2005	-2.253E-10	4.713349	0.1000054	8.60172E-05	4.713349
-3.40052	-2.29E-10	4.73792	0.100004	8.55195E-05	4.73792
-3.60046	-2.343E-10	4.762442	0.1000049	8.50198E-05	4.762442
-3.80052	-2.409E-10	4.786973	0.100005	8.45198E-05	4.786973
-4.00047	-2.417E-10	4.811485	0.1000045	8.40194E-05	4.811485
-4.20051	-2.438E-10	4.836023	0.1000047	8.35169E-05	4.836023
-4.40049	-2.599E-10	4.860525	0.1000053	8.30137E-05	4.860525
-4.6005	-2.64E-10	4.885112	0.1000045	8.25085E-05	4.885112
-4.80047	-2.467E-10	4.909626	0.100005	8.20018E-05	4.909626
-5.00049	-2.623E-10	4.934148	0.1000046	8.14931E-05	4.934148
-5.20046	-2.71E-10	4.958654	0.100005	8.09839E-05	4.958654
-5.40048	-2.786E-10	4.98319	0.1000057	8.04733E-05	4.98319
-5.6005	-2.652E-10	5.007694	0.1000041	7.99607E-05	5.007694
-5.80048	-2.75E-10	5.032222	0.1000052	7.94469E-05	5.032222
-6.00049	-2.895E-10	5.056799	0.1000041	7.89302E-05	5.056799
-6.20048	-2.715E-10	5.081313	0.100005	7.84132E-05	5.081313
-6.40047	-2.076E-10	5.14466	0.1000055	7.78955E-05	5.14466
-6.60049	-2.594E-10	5.169199	0.1000048	7.73732E-05	5.169199
-6.80048	-2.751E-10	5.193722	0.1000043	7.68478E-05	5.193722
-7.00047	-2.731E-10	5.218254	0.1000053	7.63226E-05	5.218254
-7.20048	-2.792E-10	5.24282	0.1000055	7.57956E-05	5.24282
-7.40048	-2.959E-10	5.267436	0.1000047	7.52652E-05	5.267436
-7.60051	-2.976E-10	5.291936	0.1000055	7.47341E-05	5.291936
-7.80046	-2.843E-10	5.316465	0.1000067	7.42024E-05	5.316465
-8.00051	-3.085E-10	5.340989	0.1000055	7.36656E-05	5.340989
-8.2005	-3.154E-10	5.365504	0.1000048	7.31273E-05	5.365504
-8.40048	-3.067E-10	5.390074	0.1000048	7.2588E-05	5.390074
-8.60049	-3.017E-10	5.414599	0.1000052	7.20462E-05	5.414599
-8.80049	-3.173E-10	5.439112	0.1000061	7.15028E-05	5.439112
-9.00048	-3.36E-10	5.463662	0.1000054	7.09549E-05	5.463662
-9.2005	-3.062E-10	5.488253	0.1000057	7.04087E-05	5.488253
-9.40048	-3.207E-10	5.512775	0.1000064	6.98591E-05	5.512775
-9.6005	-3.465E-10	5.537285	0.1000061	6.93068E-05	5.537285
-9.80048	-3.216E-10	5.561817	0.1000057	6.87555E-05	5.561817
-10.00048	-3.343E-10	5.586325	0.1000059	6.82009E-05	5.586325
-10.20051	-2.863E-10	5.643652	0.1000062	6.76526E-05	5.643652
-10.40048	-3.227E-10	5.668175	0.1000046	6.70926E-05	5.668175
-10.60048	-2.49E-10	5.692718	0.1000055	6.6533E-05	5.692718
-10.80049	-3.262E-10	5.717223	0.1000062	6.597E-05	5.717223
-11.00047	-3.2E-10	5.74181	0.1000056	6.54055E-05	5.74181
-11.20048	-3.32E-10	5.766329	0.1000065	6.48377E-05	5.766329
-11.40047	-3.494E-10	5.790951	0.100007	6.42692E-05	5.790951
-11.60048	-3.382E-10	5.815462	0.1000063	6.36975E-05	5.815462
-11.80049	-3.492E-10	5.839988	0.1000069	6.31241E-05	5.839988
-12.00049	-3.617E-10	5.8645	0.1000065	6.25479E-05	5.8645
#scan	iMeasureCycle=2	iMux=0	time=279.791	N=222	LocalTime=22/06/2023 05:43:30
#VGate(V)	IGate(A)	time(s)	VDrain(V)	IDrain(A)	time(s)
-12.00048	-5.93E-11	279.798732	0.1000048	6.25865E-05	279.798732
-11.80049	-2.6E-12	279.823613	0.1000057	6.31652E-05	279.823613
-11.60049	-8.1E-12	279.849246	0.1000059	6.37415E-05	279.849246
-11.4005	1.14E-11	279.873818	0.1000059	6.43154E-05	279.873818
-11.2005	4.67E-11	279.898385	0.1000061	6.48879E-05	279.898385
-11.00049	7.09E-11	279.922903	0.1000055	6.54575E-05	279.922903
-10.80052	6.06E-11	279.947433	0.100005	6.60241E-05	279.947433
-10.60051	7.03E-11	279.971948	0.1000059	6.65906E-05	279.971948
-10.40048	3.533E-10	279.996465	0.1000064	6.71543E-05	279.996465
-10.20052	1.061E-10	280.020978	0.1000068	6.77158E-05	280.020978
-10.00047	1.252E-10	280.045507	0.100006	6.8275E-05	280.045507
-9.80048	1.204E-10	280.070125	0.1000065	6.88344E-05	280.070125
-9.6005	1.002E-10	280.094648	0.1000068	6.93894E-05	280.094648
-9.40048	1.253E-10	280.119179	0.1000067	6.99432E-05	280.119179
-9.2005	1.402E-10	280.143695	0.1000055	7.04938E-05	280.143695
-9.0005	1.354E-10	280.168236	0.1000057	7.10415E-05	280.168236
-8.80049	1.327E-10	280.192751	0.1000053	7.15847E-05	280.192751
-8.60049	1.346E-10	280.217283	0.1000054	7.21257E-05	280.217283
-8.40049	1.641E-10	280.241849	0.1000055	7.26647E-05	280.241849
-8.20047	1.558E-10	280.266379	0.100006	7.32022E-05	280.266379
-8.00049	1.475E-10	280.290906	0.1000066	7.37377E-05	280.290906
-7.80047	1.588E-10	280.315432	0.1000065	7.42708E-05	280.315432
-7.6005	1.248E-10	280.357596	0.1000051	7.48011E-05	280.357596
-7.4005	1.646E-10	280.382164	0.1000052	7.53313E-05	280.382164
-7.20049	1.717E-10	280.406713	0.1000054	7.5859E-05	280.406713
-7.00052	1.27E-11	280.431213	0.100005	7.63853E-05	280.431213
-6.80049	1.552E-10	280.455813	0.1000054	7.69112E-05	280.455813
-6.6005	1.695E-10	280.480326	0.1000042	7.74351E-05	280.480326
-6.40049	2.054E-10	280.504868	0.100005	7.79568E-05	280.504868
-6.2005	1.857E-10	280.529382	0.1000053	7.84759E-05	280.529382
-6.00049	1.666E-10	280.553929	0.1000049	7.89937E-05	280.553929
-5.8005	1.994E-10	280.578505	0.1000048	7.95085E-05	280.578505
-5.60049	2.142E-10	280.603106	0.1000051	8.00237E-05	280.603106
-5.40051	1.969E-10	280.627628	0.1000056	8.05361E-05	280.627628
-5.20051	2.021E-10	280.652141	0.1000052	8.10467E-05	280.652141
-5.00049	2.214E-10	280.676671	0.1000043	8.15568E-05	280.676671
-4.8005	2.204E-10	280.701195	0.1000049	8.2064E-05	280.701195
-4.6005	2.357E-10	280.725726	0.1000055	8.25716E-05	280.725726
-4.40049	2.236E-10	280.750233	0.1000045	8.30754E-05	280.750233
-4.2005	2.259E-10	280.774767	0.1000051	8.35805E-05	280.774767
-4.00049	2.321E-10	280.799294	0.1000055	8.40846E-05	280.799294
-3.80049	1.879E-10	280.849248	0.1000045	8.45812E-05	280.849248
-3.6005	2.118E-10	280.873834	0.1000041	8.50836E-05	280.873834
-3.40049	2.193E-10	280.898383	0.1000046	8.55844E-05	280.898383
-3.20049	2.382E-10	280.922901	0.1000046	8.60823E-05	280.922901
-3.0005	2.341E-10	280.94847	0.1000045	8.65798E-05	280.94847
-2.80051	2.406E-10	280.973006	0.1000041	8.70762E-05	280.973006
-2.60047	2.455E-10	280.997534	0.1000051	8.75729E-05	280.997534
-2.4005	2.563E-10	281.022069	0.1000049	8.80684E-05	281.022069
-2.20051	2.83E-10	281.046605	0.1000044	8.85624E-05	281.046605
-2.00048	2.566E-10	281.071137	0.100004	8.90564E-05	281.071137
-1.8005	2.346E-10	281.095733	0.100004	8.95489E-05	281.095733
-1.60048	2.935E-10	281.120265	0.100004	9.00443E-05	281.120265
-1.40051	2.895E-10	281.144773	0.1000042	9.05439E-05	281.144773
-1.20051	2.626E-10	281.169302	0.100004	9.10473E-05	281.169302
-1.00048	2.614E-10	281.193844	0.1000049	9.15609E-05	281.193844
-0.80051	2.906E-10	281.218406	0.1000042	9.20837E-05	281.218406
-0.60048	2.908E-10	281.242982	0.1000043	9.26171E-05	281.242982
-0.4005	2.799E-10	281.2675	0.1000045	9.31599E-05	281.2675
-0.2005	2.89E-10	281.292022	0.1000047	9.37116E-05	281.292022
-0.00051	2.932E-10	281.316539	0.1000044	9.42673E-05	281.316539
0.1995	2.668E-10	281.365203	0.1000041	9.48259E-05	281.365203
0.39951	3.866E-10	281.389746	0.1000048	9.53905E-05	281.389746
0.5995	3.175E-10	281.414275	0.1000037	9.59564E-05	281.414275
0.79948	3.118E-10	281.438787	0.1000047	9.65253E-05	281.438787
0.99949	3.323E-10	281.463358	0.100004	9.70949E-05	281.463358
1.19949	3.152E-10	281.48787	0.1000046	9.76664E-05	281.48787
1.39951	3.099E-10	281.512397	0.1000043	9.82374E-05	281.512397
1.5995	3.206E-10	281.536921	0.1000038	9.88121E-05	281.536921
1.79948	3.314E-10	281.561433	0.1000042	9.93898E-05	281.561433
1.99951	3.417E-10	281.586011	0.1000042	9.99676E-05	281.586011
2.1995	3.231E-10	281.610531	0.1000042	0.0001005478	281.610531
2.39947	3.193E-10	281.635044	0.1000048	0.0001011293	281.635044
2.59952	3.353E-10	281.659585	0.1000041	0.0001017099	281.659585
2.79949	3.45E-10	281.684102	0.1000043	0.0001022913	281.684102
2.99951	3.496E-10	281.708646	0.1000042	0.0001028738	281.708646
3.1995	3.466E-10	281.733158	0.1000037	0.000103456	281.733158
3.39952	3.4E-10	281.757682	0.100004	0.0001040393	281.757682
3.59951	3.612E-10	281.782183	0.1000045	0.000104621	281.782183
3.79948	3.177E-10	281.811734	0.1000002	0.000105276	281.811734
3.99949	2.921E-10	281.866832	0.1000001	0.00010585	281.866832
4.19949	3.1E-10	281.891358	0.0999998	0.000106429	281.891358
4.39948	3.373E-10	281.915934	0.1000001	0.000107006	281.915934
4.59948	3.47E-10	281.940442	0.1000002	0.000107583	281.940442
4.79948	3.545E-10	281.965024	0.0999999	0.000108154	281.965024
4.99949	3.631E-10	281.989546	0.1	0.000108723	281.989546
5.19949	3.524E-10	282.014092	0.0999998	0.000109287	282.014092
5.39947	3.64E-10	282.038611	0.1	0.000109851	282.038611
5.59948	3.621E-10	282.063149	0.1000001	0.000110412	282.063149
5.79949	3.827E-10	282.087752	0.0999997	0.000110968	282.087752
5.99948	3.685E-10	282.112297	0.1	0.000111524	282.112297
6.19948	3.595E-10	282.136814	0.1000001	0.000112076	282.136814
6.39948	3.859E-10	282.161358	0.1	0.000112622	282.161358
6.59949	4.031E-10	282.185871	0.1	0.000113165	282.185871
6.79949	3.761E-10	282.210415	0.1000001	0.000113709	282.210415
6.99947	3.669E-10	282.234937	0.1	0.000114246	282.234937
7.19949	4.045E-10	282.25947	0.1000001	0.000114782	282.25947
7.3995	4.001E-10	282.283971	0.1	0.000115314	282.283971
7.5995	3.915E-10	282.308499	0.1	0.000115841	282.308499
7.7995	3.276E-10	282.371073	0.1	0.000116362	282.371073
7.99949	3.714E-10	282.395611	0.1	0.000116885	282.395611
8.1995	3.792E-10	282.420127	0.0999999	0.000117405	282.420127
8.39949	4.109E-10	282.444661	0.0999999	0.00011792	282.444661
8.59949	3.953E-10	282.469217	0.0999998	0.000118433	282.469217
8.79948	3.897E-10	282.493743	0.0999999	0.000118946	282.493743
8.99947	4.038E-10	282.518272	0.1000001	0.000119452	282.518272
9.19948	4.071E-10	282.542837	0.1	0.000119958	282.542837
9.39949	4.32E-10	282.567418	0.1000001	0.000120466	282.567418
9.59947	4.098E-10	282.591935	0.1000001	0.000120969	282.591935
9.79947	3.834E-10	282.616455	0.0999998	0.000121468	282.616455
9.99947	4.41E-10	282.640966	0.0999998	0.000121966	282.640966
9.99947	3.751E-10	282.664311	0.0999999	0.000121966	282.664311
9.79951	2.672E-10	282.688842	0.0999997	0.000121469	282.688842
9.59951	2.493E-10	282.713438	0.1000001	0.000120972	282.713438
9.39952	2.095E-10	282.737957	0.0999999	0.000120473	282.737957
9.1995	1.82E-10	282.762464	0.1000001	0.000119969	282.762464
8.99948	1.701E-10	282.786987	0.1000001	0.000119464	282.786987
8.7995	3.094E-10	282.811506	0.1	0.000118953	282.811506
8.59951	2.052E-10	282.865779	0.0999998	0.000118429	282.865779
8.39949	1.259E-10	282.890351	0.0999998	0.000117907	282.890351
8.1995	9.24E-11	282.914939	0.0999999	0.000117382	282.914939
7.99949	1.068E-10	282.939446	0.1000001	0.000116855	282.939446
7.7995	1.052E-10	282.964032	0.0999997	0.000116324	282.964032
7.5995	7.31E-11	282.988536	0.1000003	0.000115791	282.988536
7.3995	5.38E-11	283.013231	0.0999999	0.000115257	283.013231
7.1995	5.29E-11	283.037754	0.0999999	0.000114719	283.037754
6.99949	5E-11	283.06231	0.1	0.000114177	283.06231
6.7995	4.18E-11	283.086815	0.1	0.000113633	283.086815
6.5995	3.43E-11	283.111342	0.1000001	0.000113086	283.111342
6.3995	3.5E-12	283.135876	0.1000001	0.000112537	283.135876
6.19951	7.4E-12	283.160341	0.0999999	0.000111985	283.160341
5.99951	1.83E-11	283.184855	0.1	0.000111428	283.184855
5.7995	2.3E-12	283.209381	0.1000002	0.000110869	283.209381
5.59951	-1.53E-11	283.23391	0.0999998	0.000110306	283.23391
5.39947	-2.673E-10	283.258483	0.0999999	0.000109741	283.258483
5.19951	-2.9E-11	283.282999	0.0999998	0.000109173	283.282999
4.9995	-2.7E-11	283.307506	0.0999999	0.000108602	283.307506
4.79951	-9E-12	283.355675	0.1000001	0.00010803	283.355675
4.59948	-2.24E-11	283.380272	0.0999997	0.000107456	283.380272
4.39949	-2.81E-11	283.404892	0.1000001	0.000106876	283.404892
4.19948	-4.77E-11	283.429427	0.1000001	0.000106296	283.429427
3.9995	-5.49E-11	283.455625	0.0999999	0.000105715	283.455625
3.79948	-5.82E-11	283.480166	0.0999999	0.000105133	283.480166
3.5995	-6.38E-11	283.504727	0.1000002	0.000104547	283.504727
3.39947	-8.84E-11	283.529243	0.1	0.000103962	283.529243
3.19951	-7.98E-11	283.5538	0.0999999	0.000103376	283.5538
2.99951	-9.07E-11	283.578366	0.1000001	0.000102791	283.578366
2.7995	-9.56E-11	283.60289	0.1000002	0.000102208	283.60289
2.59952	-8.09E-11	283.627399	0.1000001	0.000101622	283.627399
2.3995	-1.083E-10	283.65191	0.0999999	0.00010104	283.65191
2.1995	-1.363E-10	283.676434	0.1000002	0.000100458	283.676434
1.99948	-1.132E-10	283.700946	0.1	9.9876E-05	283.700946
1.79951	-9.51E-11	283.725468	0.0999998	9.9298E-05	283.725468
1.59949	-1.314E-10	283.749995	0.1	9.8719E-05	283.749995
1.3995	-1.449E-10	283.774507	0.1000001	9.8144E-05	283.774507
1.19951	-1.217E-10	283.799028	0.0999998	9.7569E-05	283.799028
0.99949	-1.356E-10	283.823548	0.1000001	9.6995E-05	283.823548
0.7995	-1.126E-10	283.873356	0.1	9.6427E-05	283.873356
0.59952	-1.207E-10	283.897944	0.0999999	9.5858E-05	283.897944
0.39951	-1.36E-10	283.922502	0.1	9.529E-05	283.922502
0.1995	-1.404E-10	283.947046	0.1	9.4725E-05	283.947046
-0.00049	-1.515E-10	283.971604	0.0999998	9.4166E-05	283.971604
-0.20049	-1.731E-10	283.996116	0.1000002	9.3609E-05	283.996116
-0.4005	-1.692E-10	284.020632	0.0999998	9.306E-05	284.020632
-0.60048	-1.579E-10	284.045178	0.1	9.252E-05	284.045178
-0.8005	-1.706E-10	284.069707	0.0999998	9.1994E-05	284.069707
-1.00048	-1.83E-10	284.094324	0.1000001	9.1476E-05	284.094324
-1.20049	-1.917E-10	284.118858	0.1000002	9.0971E-05	284.118858
-1.4005	-1.796E-10	284.14345	0.1	9.0472E-05	284.14345
-1.60049	-1.712E-10	284.167967	0.0999998	8.9977E-05	284.167967
-1.8005	-2.07E-10	284.192483	0.0999999	8.9485E-05	284.192483
-2.00049	-3.35E-11	284.22034	0.1000047	8.8912E-05	284.22034
-2.2005	-1.823E-10	284.24489	0.1000047	8.842E-05	284.24489
-2.40048	-1.916E-10	284.269431	0.1000053	8.79273E-05	284.269431
-2.6005	-1.994E-10	284.293944	0.1000054	8.74336E-05	284.293944
-2.8005	-2.205E-10	284.318458	0.1000049	8.6938E-05	284.318458
-3.00049	-1.558E-10	284.377872	0.1000044	8.64439E-05	284.377872
-3.20049	-1.889E-10	284.402413	0.1000053	8.59474E-05	284.402413
-3.40049	-1.897E-10	284.426974	0.1000045	8.5448E-05	284.426974
-3.60049	-2.155E-10	284.451521	0.1000049	8.49492E-05	284.451521
-3.80048	-2.328E-10	284.47608	0.1000049	8.44496E-05	284.47608
-4.00046	-2.21E-10	284.500617	0.100006	8.39495E-05	284.500617
-4.20049	-2.25E-10	284.525135	0.1000058	8.34459E-05	284.525135
-4.40049	-2.306E-10	284.549772	0.1000054	8.29423E-05	284.549772
-4.60045	-2.328E-10	284.57454	0.1000052	8.24372E-05	284.57454
-4.80049	-2.435E-10	284.599083	0.1000051	8.1931E-05	284.599083
-5.0005	-2.368E-10	284.623618	0.1000051	8.14232E-05	284.623618
-5.20048	-2.344E-10	284.648225	0.1000052	8.09133E-05	284.648225
-5.4005	-4.337E-10	284.67275	0.1000047	8.04025E-05	284.67275
-5.60048	-2.875E-10	284.697263	0.1000055	7.98899E-05	284.697263
-5.80046	-2.565E-10	284.721785	0.1000054	7.93755E-05	284.721785
-6.0005	-2.584E-10	284.746305	0.1000051	7.88592E-05	284.746305
-6.20049	-2.771E-10	284.77083	0.1000058	7.8341E-05	284.77083
-6.4005	-2.826E-10	284.795339	0.1000055	7.78197E-05	284.795339
-6.60049	-2.739E-10	284.819873	0.1000048	7.72977E-05	284.819873
-6.80049	-2.41E-10	284.876686	0.1000056	7.67761E-05	284.876686
-7.00049	-2.419E-10	284.901263	0.1000041	7.62496E-05	284.901263
-7.2005	-2.6E-10	284.925826	0.1000051	7.57224E-05	284.925826
-7.40048	-2.82E-10	284.950343	0.1000058	7.51932E-05	284.950343
-7.60052	-2.684E-10	284.974906	0.1000056	7.46604E-05	284.974906
-7.80049	-2.797E-10	284.999426	0.1000043	7.41255E-05	284.999426
-8.00049	-2.84E-10	285.023939	0.1000051	7.35908E-05	285.023939
-8.20047	-2.828E-10	285.04871	0.1000056	7.30525E-05	285.04871
-8.40048	-2.945E-10	285.073246	0.1000055	7.25133E-05	285.073246
-8.60047	-3.138E-10	285.097765	0.1000056	7.1971E-05	285.097765
-8.80049	-3.022E-10	285.12231	0.1000056	7.14269E-05	285.12231
-9.00049	-2.79E-10	285.146822	0.1000059	7.08808E-05	285.146822
-9.20048	-3.029E-10	285.171359	0.1000059	7.03321E-05	285.171359
-9.4005	-3.317E-10	285.195866	0.1000054	6.9782E-05	285.195866
-9.6005	-3.047E-10	285.220397	0.1000058	6.92305E-05	285.220397
-9.80049	-3.092E-10	285.244946	0.1000066	6.86799E-05	285.244946
-10.00047	-3.232E-10	285.26946	0.1000071	6.81256E-05	285.26946
-10.20049	-3.261E-10	285.293969	0.1000062	6.75702E-05	285.293969
-10.40048	-3.217E-10	285.318496	0.1000061	6.70119E-05	285.318496
-10.60051	-2.725E-10	285.378475	0.1000056	6.64575E-05	285.378475
-10.8005	-3.1E-10	285.403037	0.1000066	6.58956E-05	285.403037
-11.00047	-2.872E-10	285.427557	0.1000058	6.53299E-05	285.427557
-11.20048	-3.216E-10	285.452067	0.1000068	6.47628E-05	285.452067
-11.40049	-3.487E-10	285.476639	0.1000059	6.41931E-05	285.476639
-11.60049	-3.212E-10	285.501151	0.1000052	6.36201E-05	285.501151
-11.80049	-3.183E-10	285.525678	0.1000067	6.30474E-05	285.525678
-12.00047	-3.402E-10	285.550477	0.1000063	6.24715E-05	285.550477
#scan	iMeasureCycle=3	iMux=0	time=319.876	N=222	LocalTime=22/06/2023 05:44:10
#VGate(V)	IGate(A)	time(s)	VDrain(V)	IDrain(A)	time(s)
-12.00048	-7.42E-11	319.883592	0.1000054	6.2566E-05	319.883592
-11.80051	-1.21E-11	319.908473	0.1000059	6.31444E-05	319.908473
-11.6005	1.13E-11	319.934398	0.1000065	6.37213E-05	319.934398
-11.4005	4.01E-11	319.958976	0.100006	6.42953E-05	319.958976
-11.20049	2.73E-11	319.983508	0.1000058	6.4867E-05	319.983508
-11.0005	6.43E-11	320.008099	0.1000058	6.54372E-05	320.008099
-10.8005	7.34E-11	320.032616	0.1000049	6.60036E-05	320.032616
-10.60049	7.69E-11	320.057157	0.1000056	6.65695E-05	320.057157
-10.40047	9.2E-11	320.081753	0.1000057	6.71333E-05	320.081753
-10.20051	9.62E-11	320.106307	0.1000058	6.76945E-05	320.106307
-10.00049	9.9E-11	320.130831	0.1000063	6.82541E-05	320.130831
-9.80047	1.025E-10	320.155349	0.1000057	6.88127E-05	320.155349
-9.60051	1.209E-10	320.179884	0.1000052	6.93671E-05	320.179884
-9.4005	1.235E-10	320.204417	0.1000055	6.9921E-05	320.204417
-9.20051	1.077E-10	320.228933	0.1000055	7.04725E-05	320.228933
-9.00049	1.315E-10	320.25348	0.1000052	7.10185E-05	320.25348
-8.80049	1.602E-10	320.278004	0.1000058	7.15642E-05	320.278004
-8.60048	1.381E-10	320.302555	0.1000058	7.2104E-05	320.302555
-8.40051	1.356E-10	320.32704	0.1000054	7.26423E-05	320.32704
-8.2005	1.648E-10	320.351585	0.1000053	7.31784E-05	320.351585
-8.00049	1.584E-10	320.376107	0.1000049	7.37135E-05	320.376107
-7.80048	1.71E-10	320.400624	0.100006	7.42469E-05	320.400624
-7.6005	1.062E-10	320.447109	0.1000049	7.47756E-05	320.447109
-7.40049	1.495E-10	320.471645	0.100006	7.53072E-05	320.471645
-7.2005	1.79E-10	320.496197	0.1000052	7.58358E-05	320.496197
-7.00048	1.702E-10	320.520746	0.1000048	7.6361E-05	320.520746
-6.80049	1.734E-10	320.54532	0.100005	7.68863E-05	320.54532
-6.6005	1.822E-10	320.569858	0.100005	7.74095E-05	320.569858
-6.40051	2.017E-10	320.594371	0.1000052	7.79309E-05	320.594371
-6.2005	1.968E-10	320.618938	0.1000058	7.84509E-05	320.618938
-6.00051	1.947E-10	320.643448	0.1000051	7.89687E-05	320.643448
-5.80051	2.104E-10	320.668033	0.1000048	7.94837E-05	320.668033
-5.6005	2.049E-10	320.692646	0.1000054	7.99971E-05	320.692646
-5.4005	2.023E-10	320.717162	0.1000053	8.05105E-05	320.717162
-5.20052	2.303E-10	320.741678	0.1000046	8.10201E-05	320.741678
-5.00051	2.169E-10	320.766188	0.1000041	8.15299E-05	320.766188
-4.80048	2.025E-10	320.790741	0.1000042	8.20372E-05	320.790741
-4.60047	2.225E-10	320.815245	0.100005	8.25438E-05	320.815245
-4.40052	2.411E-10	320.839759	0.1000049	8.30494E-05	320.839759
-4.20048	3.394E-10	320.864271	0.1000054	8.35519E-05	320.864271
-4.00051	2.619E-10	320.888799	0.1000049	8.40551E-05	320.888799
-3.8005	1.944E-10	320.94872	0.100005	8.45529E-05	320.94872
-3.6005	2.196E-10	320.97325	0.1000034	8.50527E-05	320.97325
-3.4005	2.419E-10	320.997887	0.1000047	8.55528E-05	320.997887
-3.20048	1.652E-10	321.022399	0.1000059	8.60515E-05	321.022399
-3.00048	2.049E-10	321.046976	0.100005	8.65488E-05	321.046976
-2.80049	2.402E-10	321.071483	0.1000037	8.70435E-05	321.071483
-2.60049	2.502E-10	321.096005	0.1000043	8.75401E-05	321.096005
-2.40051	2.58E-10	321.120552	0.1000051	8.80354E-05	321.120552
-2.2005	2.555E-10	321.145068	0.1000036	8.85279E-05	321.145068
-2.00049	2.451E-10	321.169589	0.1000041	8.90216E-05	321.169589
-1.80052	2.784E-10	321.194094	0.1000038	8.95142E-05	321.194094
-1.60049	2.808E-10	321.218614	0.1000048	9.0011E-05	321.218614
-1.4005	2.606E-10	321.243126	0.1000041	9.05081E-05	321.243126
-1.20051	2.641E-10	321.267644	0.1000043	9.10122E-05	321.267644
-1.0005	2.878E-10	321.29216	0.1000044	9.15254E-05	321.29216
-0.80051	2.793E-10	321.316691	0.1000037	9.20469E-05	321.316691
-0.60049	2.81E-10	321.341287	0.1000039	9.25803E-05	321.341287
-0.4005	2.939E-10	321.365806	0.1000044	9.31237E-05	321.365806
-0.2005	2.952E-10	321.390342	0.100004	9.36746E-05	321.390342
-0.0005	2.227E-10	321.450257	0.1000035	9.42263E-05	321.450257
0.19949	2.801E-10	321.474854	0.1000035	9.47882E-05	321.474854
0.39951	2.967E-10	321.499371	0.1000038	9.53539E-05	321.499371
0.59949	2.863E-10	321.523873	0.1000038	9.59182E-05	321.523873
0.79949	2.943E-10	321.548444	0.1000037	9.6487E-05	321.548444
0.99951	3.02E-10	321.57296	0.1000032	9.70563E-05	321.57296
1.19949	3.158E-10	321.597489	0.100003	9.76262E-05	321.597489
1.39951	3.005E-10	321.622034	0.1000037	9.82002E-05	321.622034
1.59951	3.113E-10	321.646547	0.1000033	9.87746E-05	321.646547
1.79947	3.254E-10	321.671126	0.1000028	9.935E-05	321.671126
1.9995	3.178E-10	321.695652	0.1000031	9.99286E-05	321.695652
2.19952	3.256E-10	321.720176	0.1000031	0.000100509	321.720176
2.39949	3.32E-10	321.74471	0.1000036	0.0001010906	321.74471
2.5995	3.219E-10	321.769235	0.1000031	0.0001016704	321.769235
2.79948	3.31E-10	321.793754	0.1000036	0.0001022526	321.793754
2.9995	3.544E-10	321.81827	0.1000037	0.0001028355	321.81827
3.1995	3.345E-10	321.842796	0.1000037	0.0001034186	321.842796
3.39949	3.36E-10	321.867299	0.1000035	0.000104	321.867299
3.59952	3.422E-10	321.891915	0.100003	0.0001045826	321.891915
3.79948	2.768E-10	321.957284	0.1	0.000105231	321.957284
3.99949	3.278E-10	321.98182	0.0999998	0.000105812	321.98182
4.1995	3.414E-10	322.006407	0.0999999	0.000106393	322.006407
4.39947	3.293E-10	322.03092	0.1	0.000106968	322.03092
4.59951	3.441E-10	322.055506	0.1000001	0.000107544	322.055506
4.7995	3.662E-10	322.080007	0.1	0.000108116	322.080007
4.99948	3.45E-10	322.104593	0.1000001	0.000108685	322.104593
5.1995	3.431E-10	322.129148	0.1	0.000109254	322.129148
5.39948	3.647E-10	322.153661	0.0999999	0.000109817	322.153661
5.5995	3.666E-10	322.178188	0.1	0.000110378	322.178188
5.79951	3.651E-10	322.202705	0.1000001	0.000110934	322.202705
5.99948	3.561E-10	322.227238	0.1	0.000111487	322.227238
6.19948	3.769E-10	322.251747	0.0999999	0.000112039	322.251747
6.39948	4.757E-10	322.276259	0.0999999	0.000112588	322.276259
6.59949	3.954E-10	322.300787	0.0999997	0.00011313	322.300787
6.7995	3.881E-10	322.325327	0.0999999	0.000113672	322.325327
6.99948	3.902E-10	322.349904	0.1000001	0.000114211	322.349904
7.1995	3.904E-10	322.374431	0.1000001	0.000114747	322.374431
7.39949	4.054E-10	322.398934	0.1000001	0.000115276	322.398934
7.59948	3.179E-10	322.45661	0.1	0.000115801	322.45661
7.7995	3.534E-10	322.481148	0.1	0.000116331	322.481148
7.99951	3.755E-10	322.50569	0.0999999	0.000116855	322.50569
8.19949	3.773E-10	322.530212	0.1000001	0.000117371	322.530212
8.39949	3.821E-10	322.554784	0.1	0.000117889	322.554784
8.59947	3.914E-10	322.57929	0.1	0.0001184	322.57929
8.7995	4.071E-10	322.603827	0.1000001	0.000118912	322.603827
8.99951	3.783E-10	322.628347	0.0999999	0.000119417	322.628347
9.19948	3.99E-10	322.652879	0.0999998	0.000119924	322.652879
9.39947	4.109E-10	322.677444	0.1000001	0.000120432	322.677444
9.5995	4.045E-10	322.701994	0.1	0.000120931	322.701994
9.7995	3.971E-10	322.726533	0.0999999	0.000121434	322.726533
9.99947	4.07E-10	322.751066	0.1	0.000121932	322.751066
9.99949	3.513E-10	322.774416	0.1	0.000121932	322.774416
9.79952	2.743E-10	322.798949	0.1	0.000121435	322.798949
9.59949	2.327E-10	322.823459	0.0999998	0.000120937	322.823459
9.39948	1.937E-10	322.847984	0.1	0.000120437	322.847984
9.19948	1.766E-10	322.872494	0.0999998	0.000119932	322.872494
8.99949	1.475E-10	322.897013	0.0999999	0.000119427	322.897013
8.79951	1.828E-10	322.955387	0.0999999	0.000118914	322.955387
8.5995	1.237E-10	322.979961	0.1	0.000118395	322.979961
8.39951	1.119E-10	323.004651	0.1000001	0.000117875	323.004651
8.19951	9.89E-11	323.029186	0.1	0.000117348	323.029186
7.99951	8.82E-11	323.05376	0.1	0.00011682	323.05376
7.7995	7.34E-11	323.078304	0.1	0.000116288	323.078304
7.5995	6.5E-11	323.102765	0.1000001	0.000115754	323.102765
7.39949	5.62E-11	323.127331	0.0999999	0.000115219	323.127331
7.1995	3.4E-11	323.151837	0.1000002	0.000114679	323.151837
6.99948	4.1E-11	323.176436	0.0999998	0.00011414	323.176436
6.7995	4.48E-11	323.200948	0.0999997	0.000113595	323.200948
6.59949	1.48E-11	323.225485	0.0999999	0.000113046	323.225485
6.3995	5.5E-12	323.25	0.1	0.000112496	323.25
6.19952	1.12E-11	323.274539	0.1000001	0.000111943	323.274539
5.9995	7E-13	323.299054	0.1	0.000111388	323.299054
5.79951	-2.04E-11	323.323605	0.1000002	0.00011083	323.323605
5.59952	-2.03E-11	323.348186	0.1000001	0.000110267	323.348186
5.39948	-2.37E-11	323.37271	0.1000002	0.000109701	323.37271
5.19951	-3.3E-11	323.397219	0.1	0.000109132	323.397219
4.99949	2.53E-11	323.456986	0.1000001	0.000108561	323.456986
4.7995	-1.83E-11	323.481554	0.0999999	0.000107987	323.481554
4.5995	-4.49E-11	323.506091	0.0999999	0.000107409	323.506091
4.3995	-5.68E-11	323.530623	0.0999997	0.00010683	323.530623
4.1995	-3.83E-11	323.555183	0.1	0.000106251	323.555183
3.9995	-5.19E-11	323.579711	0.0999999	0.000105669	323.579711
3.79948	-7.39E-11	323.604229	0.0999999	0.000105085	323.604229
3.5995	-8.28E-11	323.628789	0.0999999	0.000104501	323.628789
3.39949	-7.31E-11	323.653304	0.1	0.000103916	323.653304
3.19951	-8.2E-11	323.677897	0.1000001	0.00010333	323.677897
2.99949	-1.36E-11	323.702405	0.1000001	0.000102747	323.702405
2.7995	-7.68E-11	323.726953	0.0999999	0.000102162	323.726953
2.59952	-9.21E-11	323.751471	0.1000001	0.000101577	323.751471
2.39953	-1.011E-10	323.776002	0.1	0.000100993	323.776002
2.1995	-9.17E-11	323.800595	0.0999999	0.000100412	323.800595
1.9995	-1.108E-10	323.825145	0.0999999	9.983E-05	323.825145
1.7995	-2.731E-10	323.849667	0.1000002	9.925E-05	323.849667
1.59952	-1.395E-10	323.874181	0.0999999	9.8674E-05	323.874181
1.3995	-1.173E-10	323.898703	0.1	9.8096E-05	323.898703
1.1995	-8.2E-11	323.9543	0.1	9.7525E-05	323.9543
0.99948	-1.047E-10	323.978866	0.1	9.6949E-05	323.978866
0.79948	-1.345E-10	324.003575	0.1	9.638E-05	324.003575
0.59951	-1.525E-10	324.028119	0.1	9.5811E-05	324.028119
0.3995	-1.313E-10	324.052679	0.0999998	9.5244E-05	324.052679
0.19949	-1.475E-10	324.077215	0.0999998	9.468E-05	324.077215
-0.00048	-1.659E-10	324.101803	0.0999999	9.4117E-05	324.101803
-0.20049	-1.5E-10	324.126435	0.0999998	9.3563E-05	324.126435
-0.40048	-1.666E-10	324.150951	0.1	9.3015E-05	324.150951
-0.60049	-1.779E-10	324.175485	0.1000001	9.2477E-05	324.175485
-0.80051	-1.786E-10	324.200004	0.1000001	9.1952E-05	324.200004
-1.00049	-1.753E-10	324.224547	0.1	9.1434E-05	324.224547
-1.20049	-1.86E-10	324.249064	0.0999999	9.0927E-05	324.249064
-1.4005	-1.908E-10	324.273592	0.1000001	9.0426E-05	324.273592
-1.60049	-1.84E-10	324.298119	0.0999999	8.9929E-05	324.298119
-1.80051	-1.863E-10	324.322654	0.0999998	8.9435E-05	324.322654
-2.00049	-2.061E-10	324.347233	0.0999999	8.8944E-05	324.347233
-2.2005	-2.122E-10	324.371756	0.0999999	8.8451E-05	324.371756
-2.40047	-1.837E-10	324.399594	0.1000043	8.78797E-05	324.399594
-2.6005	-1.254E-10	324.460217	0.1000048	8.73888E-05	324.460217
-2.8005	-1.904E-10	324.484789	0.1000042	8.68939E-05	324.484789
-3.00049	-2.15E-10	324.509337	0.1000045	8.63974E-05	324.509337
-3.20049	-2.008E-10	324.533894	0.1000042	8.58992E-05	324.533894
-3.40048	-2.028E-10	324.558541	0.1000043	8.54024E-05	324.558541
-3.60049	-2.14E-10	324.583058	0.1000047	8.49039E-05	324.583058
-3.8005	-2.269E-10	324.607569	0.1000044	8.44027E-05	324.607569
-4.00048	-2.25E-10	324.632179	0.1000046	8.39015E-05	324.632179
-4.20049	-2.186E-10	324.656703	0.1000047	8.33996E-05	324.656703
-4.40049	-2.411E-10	324.681282	0.1000041	8.28949E-05	324.681282
-4.60048	-2.403E-10	324.705812	0.1000047	8.23914E-05	324.705812
-4.80049	-2.355E-10	324.730344	0.1000039	8.18845E-05	324.730344
-5.0005	-2.48E-10	324.754886	0.1000049	8.13763E-05	324.754886
-5.20049	-2.39E-10	324.779398	0.1000046	8.08672E-05	324.779398
-5.40051	-2.372E-10	324.803933	0.1000051	8.03543E-05	324.803933
-5.60048	-2.652E-10	324.828445	0.1000049	7.98428E-05	324.828445
-5.8005	-2.55E-10	324.852981	0.1000054	7.93277E-05	324.852981
-6.0005	-2.54E-10	324.877496	0.1000048	7.88121E-05	324.877496
-6.20048	-2.587E-10	324.902036	0.1000053	7.82949E-05	324.902036
-6.40047	-2.314E-10	324.952828	0.1000051	7.7774E-05	324.952828
-6.6005	-2.18E-10	324.987255	0.1000046	7.72534E-05	324.987255
-6.80049	-2.441E-10	325.011911	0.1000049	7.67276E-05	325.011911
-7.00048	-2.572E-10	325.036526	0.1000054	7.62025E-05	325.036526
-7.20047	-2.655E-10	325.061055	0.100005	7.56742E-05	325.061055
-7.40049	-2.696E-10	325.085633	0.1000047	7.51438E-05	325.085633
-7.60049	-2.46E-11	325.110142	0.100006	7.4614E-05	325.110142
-7.80046	-2.654E-10	325.134685	0.1000056	7.40794E-05	325.134685
-8.00049	-2.73E-10	325.159197	0.100006	7.35443E-05	325.159197
-8.20047	-2.667E-10	325.183714	0.1000064	7.30051E-05	325.183714
-8.4005	-2.921E-10	325.208236	0.1000053	7.24646E-05	325.208236
-8.60048	-3.842E-10	325.232762	0.1000054	7.19231E-05	325.232762
-8.80049	-3.069E-10	325.257278	0.1000052	7.13793E-05	325.257278
-9.00049	-2.97E-10	325.281794	0.100005	7.08322E-05	325.281794
-9.2005	-3.07E-10	325.306305	0.100006	7.02851E-05	325.306305
-9.4005	-3.154E-10	325.330827	0.1000055	6.97347E-05	325.330827
-9.60049	-2.995E-10	325.355392	0.1000053	6.91823E-05	325.355392
-9.80047	-3.029E-10	325.379897	0.1000053	6.86318E-05	325.379897
-10.00048	-3.237E-10	325.404412	0.1000063	6.8077E-05	325.404412
-10.20049	-2.539E-10	325.464281	0.1000054	6.75284E-05	325.464281
-10.40049	-3.11E-10	325.488861	0.1000051	6.69698E-05	325.488861
-10.60049	-3.105E-10	325.51338	0.1000053	6.64084E-05	325.51338
-10.80047	-3.027E-10	325.537931	0.1000053	6.58449E-05	325.537931
-11.00047	-3.172E-10	325.562497	0.1000062	6.52809E-05	325.562497
-11.20048	-3.26E-10	325.587017	0.1000066	6.47135E-05	325.587017
-11.40049	-3.317E-10	325.611528	0.1000057	6.4143E-05	325.611528
-11.60051	-3.151E-10	325.636088	0.100006	6.35714E-05	325.636088
-11.80048	-3.27E-10	325.660611	0.1000056	6.29974E-05	325.660611
-12.0005	-3.516E-10	325.685204	0.1000061	6.24209E-05	325.685204
