#scan	iMeasureCycle=1	iMux=0	time=0.038	N=222	LocalTime=22/06/2023 07:32:51
#VGate(V)	IGate(A)	time(s)	VDrain(V)	IDrain(A)	time(s)
-12.00051	-3.1398E-09	0.063783	0.100008	6.63384E-05	0.063783
-11.80049	-2.9702E-09	0.08874	0.1000066	6.69053E-05	0.08874
-11.6005	-1.1541E-09	0.113252	0.1000058	6.747E-05	0.113252
-11.4005	-4.968E-10	0.137879	0.1000064	6.80327E-05	0.137879
-11.20051	-3.353E-10	0.162389	0.1000061	6.85929E-05	0.162389
-11.00048	-2.04E-10	0.186903	0.1000068	6.91492E-05	0.186903
-10.8005	-1.412E-10	0.21142	0.1000062	6.97052E-05	0.21142
-10.60049	-9.11E-11	0.235952	0.1000063	7.02573E-05	0.235952
-10.40052	-8.05E-11	0.260473	0.1000066	7.08063E-05	0.260473
-10.20049	-3.89E-11	0.285002	0.1000064	7.13552E-05	0.285002
-10.00049	5.3E-12	0.309601	0.1000061	7.19009E-05	0.309601
-9.80049	3.8E-12	0.334141	0.1000064	7.24453E-05	0.334141
-9.60051	1.26E-11	0.358655	0.1000061	7.29867E-05	0.358655
-9.40048	4.59E-11	0.383189	0.1000063	7.35268E-05	0.383189
-9.20049	5.18E-11	0.407704	0.1000068	7.40657E-05	0.407704
-9.00049	6.41E-11	0.432225	0.1000056	7.45951E-05	0.432225
-8.80047	6.66E-11	0.456774	0.1000065	7.51266E-05	0.456774
-8.6005	7.95E-11	0.481286	0.1000057	7.5652E-05	0.481286
-8.4005	9.31E-11	0.505808	0.1000059	7.61771E-05	0.505808
-8.20051	9.43E-11	0.530325	0.1000061	7.66987E-05	0.530325
-8.00049	1.16E-10	0.554841	0.1000054	7.72192E-05	0.554841
-7.8005	1.12E-10	0.579358	0.1000056	7.77367E-05	0.579358
-7.60049	9.66E-11	0.62687	0.1000058	7.82512E-05	0.62687
-7.40049	1.21E-10	0.651418	0.1000057	7.87675E-05	0.651418
-7.20049	1.172E-10	0.675934	0.1000058	7.92801E-05	0.675934
-7.0005	1.33E-10	0.700508	0.1000053	7.97922E-05	0.700508
-6.80046	1.471E-10	0.725086	0.1000058	8.03026E-05	0.725086
-6.6005	1.527E-10	0.749616	0.1000064	8.08117E-05	0.749616
-6.40049	1.544E-10	0.774129	0.1000054	8.13177E-05	0.774129
-6.20051	1.685E-10	0.798746	0.1000055	8.18221E-05	0.798746
-6.0005	1.709E-10	0.823264	0.1000053	8.2326E-05	0.823264
-5.80051	1.688E-10	0.847789	0.1000047	8.28258E-05	0.847789
-5.6005	1.83E-10	0.872304	0.1000055	8.33269E-05	0.872304
-5.40048	1.946E-10	0.896823	0.100006	8.3826E-05	0.896823
-5.20052	1.793E-10	0.92136	0.1000056	8.43218E-05	0.92136
-5.00049	1.838E-10	0.945874	0.1000056	8.48178E-05	0.945874
-4.80049	2.287E-10	0.970417	0.1000051	8.53114E-05	0.970417
-4.60049	2.02E-10	0.994936	0.1000056	8.58039E-05	0.994936
-4.40052	1.992E-10	1.019461	0.1000047	8.62952E-05	1.019461
-4.20051	2.204E-10	1.044033	0.1000052	8.67872E-05	1.044033
-4.00051	2.2E-10	1.068569	0.1000057	8.72767E-05	1.068569
-3.8005	1.759E-10	1.128347	0.1000056	8.77602E-05	1.128347
-3.6005	2.196E-10	1.152978	0.1000064	8.82493E-05	1.152978
-3.4005	2.284E-10	1.177491	0.1000058	8.87347E-05	1.177491
-3.20051	2.196E-10	1.202015	0.100005	8.92205E-05	1.202015
-3.00052	2.375E-10	1.226596	0.100006	8.97064E-05	1.226596
-2.8005	2.498E-10	1.251136	0.1000052	9.01882E-05	1.251136
-2.60048	2.411E-10	1.275651	0.100005	9.06705E-05	1.275651
-2.40051	2.41E-10	1.300271	0.100005	9.11513E-05	1.300271
-2.2005	1.585E-10	1.324804	0.1000056	9.16312E-05	1.324804
-2.0005	2.317E-10	1.349317	0.1000051	9.21101E-05	1.349317
-1.8005	2.48E-10	1.373911	0.1000051	9.25917E-05	1.373911
-1.6005	2.393E-10	1.398433	0.1000054	9.30745E-05	1.398433
-1.4005	2.769E-10	1.422965	0.1000059	9.35605E-05	1.422965
-1.20052	2.693E-10	1.447497	0.1000045	9.4054E-05	1.447497
-1.00051	2.604E-10	1.47203	0.100004	9.45559E-05	1.47203
-0.80051	2.812E-10	1.496556	0.1000046	9.50694E-05	1.496556
-0.6005	2.82E-10	1.521079	0.1000051	9.55912E-05	1.521079
-0.40048	2.775E-10	1.545587	0.1000043	9.61209E-05	1.545587
-0.20051	2.989E-10	1.570133	0.1000044	9.66566E-05	1.570133
-0.0005	2.585E-10	1.629893	0.1000044	9.71917E-05	1.629893
0.19951	2.662E-10	1.65453	0.1000051	9.7738E-05	1.65453
0.39951	2.722E-10	1.679047	0.1000042	9.82848E-05	1.679047
0.5995	3.021E-10	1.703624	0.1000038	9.88341E-05	1.703624
0.79949	2.978E-10	1.728171	0.1000043	9.93872E-05	1.728171
0.9995	2.959E-10	1.752684	0.1000044	9.99378E-05	1.752684
1.1995	3.049E-10	1.7772	0.1000041	0.0001004924	1.7772
1.3995	3.087E-10	1.801798	0.1000048	0.0001010486	1.801798
1.5995	3.143E-10	1.826332	0.1000041	0.000101606	1.826332
1.79951	3.193E-10	1.850844	0.1000044	0.0001021648	1.850844
1.9995	3.293E-10	1.875366	0.1000045	0.0001027254	1.875366
2.19951	3.178E-10	1.899885	0.1000038	0.0001032863	1.899885
2.39951	3.235E-10	1.924414	0.1000042	0.0001038483	1.924414
2.59951	3.433E-10	1.948943	0.1000044	0.0001044118	1.948943
2.7995	2.958E-10	1.978533	0.1	0.00010505	1.978533
2.99948	3.347E-10	2.003053	0.1000001	0.000105614	2.003053
3.1995	3.525E-10	2.027609	0.0999998	0.000106177	2.027609
3.3995	3.463E-10	2.052161	0.1000001	0.000106742	2.052161
3.59949	3.407E-10	2.07677	0.0999999	0.000107305	2.07677
3.79949	2.818E-10	2.134316	0.0999998	0.000107861	2.134316
3.9995	3.196E-10	2.158853	0.0999999	0.000108423	2.158853
4.19949	3.497E-10	2.183379	0.1000002	0.000108982	2.183379
4.39948	3.446E-10	2.207902	0.1	0.000109541	2.207902
4.59949	3.514E-10	2.232468	0.1	0.000110097	2.232468
4.79949	3.57E-10	2.257014	0.0999999	0.000110652	2.257014
4.99949	3.7E-10	2.281531	0.1000001	0.000111202	2.281531
5.1995	3.635E-10	2.306132	0.1	0.000111753	2.306132
5.39949	3.621E-10	2.330644	0.1	0.000112298	2.330644
5.59951	3.813E-10	2.355168	0.0999999	0.00011284	2.355168
5.79947	3.717E-10	2.379732	0.0999998	0.000113379	2.379732
5.99949	3.656E-10	2.404246	0.0999999	0.000113916	2.404246
6.19949	3.978E-10	2.42875	0.0999999	0.000114453	2.42875
6.39947	3.911E-10	2.453354	0.1	0.000114985	2.453354
6.59949	3.764E-10	2.477886	0.1000001	0.000115511	2.477886
6.79951	4.552E-10	2.502402	0.1000001	0.000116036	2.502402
6.99947	4.069E-10	2.526931	0.1000002	0.000116557	2.526931
7.19948	4.159E-10	2.551393	0.0999999	0.000117077	2.551393
7.39949	3.964E-10	2.575913	0.1	0.000117593	2.575913
7.5995	3.525E-10	2.633286	0.1	0.000118101	2.633286
7.79949	3.735E-10	2.657802	0.0999999	0.000118613	2.657802
7.9995	3.954E-10	2.682333	0.0999999	0.000119121	2.682333
8.19949	4.049E-10	2.706891	0.0999999	0.000119624	2.706891
8.39949	3.978E-10	2.73147	0.1	0.000120125	2.73147
8.5995	3.465E-10	2.756064	0.1000001	0.000120623	2.756064
8.79948	4.036E-10	2.780589	0.1000001	0.000121123	2.780589
8.99949	4.001E-10	2.805187	0.1000001	0.000121615	2.805187
9.19948	4.128E-10	2.829697	0.1000001	0.000122105	2.829697
9.39948	4.127E-10	2.854219	0.0999998	0.000122596	2.854219
9.59949	4.236E-10	2.878746	0.1000001	0.000123084	2.878746
9.79948	4.114E-10	2.903257	0.1	0.000123574	2.903257
9.99949	4.152E-10	2.927773	0.0999999	0.000124056	2.927773
9.9995	3.825E-10	2.951138	0.1000001	0.000124056	2.951138
9.79953	2.774E-10	2.975678	0.1	0.000123572	2.975678
9.59947	2.355E-10	3.000185	0.0999999	0.000123087	3.000185
9.39947	2.298E-10	3.024708	0.1	0.000122602	3.024708
9.1995	2.021E-10	3.049275	0.0999999	0.000122112	3.049275
8.9995	1.539E-10	3.073858	0.1000002	0.000121621	3.073858
8.79949	1.867E-10	3.13499	0.1000001	0.000121121	3.13499
8.59947	1.57E-10	3.159516	0.0999998	0.000120614	3.159516
8.39947	1.223E-10	3.184039	0.1	0.000120108	3.184039
8.19948	1.072E-10	3.20855	0.1	0.000119596	3.20855
7.99949	1.154E-10	3.233126	0.1000001	0.000119083	3.233126
7.79952	8.08E-11	3.257639	0.1	0.000118568	3.257639
7.59948	7.35E-11	3.282177	0.0999999	0.000118049	3.282177
7.39951	6.85E-11	3.306802	0.0999999	0.000117528	3.306802
7.19948	5.86E-11	3.331321	0.1000001	0.000117005	3.331321
6.99948	4.45E-11	3.355848	0.0999997	0.000116478	3.355848
6.79949	1.8E-11	3.380403	0.0999998	0.000115947	3.380403
6.59951	3.32E-11	3.404933	0.1	0.000115417	3.404933
6.3995	3.4E-11	3.429448	0.0999999	0.000114882	3.429448
6.1995	-2.8E-12	3.453984	0.0999998	0.000114343	3.453984
5.99951	8.3E-12	3.478442	0.1	0.000113804	3.478442
5.7995	-2.3E-12	3.502968	0.0999998	0.000113261	3.502968
5.59952	-2.17E-11	3.527484	0.0999999	0.000112716	3.527484
5.3995	-2.2E-11	3.552007	0.1000001	0.000112168	3.552007
5.1995	-1.52E-11	3.576477	0.1	0.000111616	3.576477
4.99951	2.84E-11	3.65481	0.0999999	0.000111066	3.65481
4.7995	-2.08E-11	3.67936	0.1000001	0.000110508	3.67936
4.5995	-1.59E-11	3.703959	0.1000003	0.000109949	3.703959
4.39949	-2.95E-11	3.7285	0.1	0.000109388	3.7285
4.1995	-4.5E-11	3.753069	0.1000001	0.000108826	3.753069
3.9995	-5.2E-11	3.777673	0.1000001	0.000108262	3.777673
3.79949	-5.72E-11	3.802227	0.1000002	0.000107696	3.802227
3.59952	-6.12E-11	3.826753	0.0999999	0.000107129	3.826753
3.39949	-7.83E-11	3.851261	0.0999999	0.000106561	3.851261
3.19949	-6.77E-11	3.875794	0.1	0.000105993	3.875794
2.99949	2.31E-11	3.900308	0.1000001	0.000105427	3.900308
2.7995	-8.27E-11	3.92482	0.1	0.00010486	3.92482
2.59952	-7.44E-11	3.949344	0.1	0.00010429	3.949344
2.3995	-9.2E-11	3.973883	0.1	0.000103726	3.973883
2.1995	-1.133E-10	3.998427	0.0999999	0.00010316	3.998427
1.99949	-1.104E-10	4.02294	0.1	0.000102596	4.02294
1.7995	-1.033E-10	4.047519	0.1	0.000102034	4.047519
1.5995	-1.211E-10	4.072038	0.1000002	0.000101476	4.072038
1.39952	-1.304E-10	4.096599	0.1000001	0.000100914	4.096599
1.1995	-8.85E-11	4.139038	0.1	0.000100361	4.139038
0.9995	-1.818E-10	4.163556	0.0999999	9.9804E-05	4.163556
0.79951	-1.444E-10	4.188085	0.1	9.9252E-05	4.188085
0.59951	-1.444E-10	4.212597	0.0999999	9.8697E-05	4.212597
0.39951	-1.451E-10	4.237174	0.1	9.8146E-05	4.237174
0.19949	-1.624E-10	4.261688	0.1	9.7598E-05	4.261688
-0.0005	-1.646E-10	4.286277	0.1	9.7051E-05	4.286277
-0.20048	-1.552E-10	4.310888	0.1	9.6509E-05	4.310888
-0.40051	-1.741E-10	4.33541	0.0999999	9.5974E-05	4.33541
-0.60049	-1.903E-10	4.359944	0.1	9.5447E-05	4.359944
-0.80052	-1.901E-10	4.384513	0.0999999	9.493E-05	4.384513
-1.00052	-1.603E-10	4.409047	0.1000001	9.4425E-05	4.409047
-1.2005	-1.957E-10	4.433563	0.1	9.3928E-05	4.433563
-1.4005	-2.112E-10	4.45836	0.1	9.344E-05	4.45836
-1.60047	-1.883E-10	4.48289	0.1	9.2959E-05	4.48289
-1.80049	-1.911E-10	4.50741	0.1	9.2479E-05	4.50741
-2.00049	-2.115E-10	4.531936	0.0999998	9.1998E-05	4.531936
-2.20051	-2.068E-10	4.55645	0.1000001	9.1521E-05	4.55645
-2.40048	-2.105E-10	4.580991	0.0999999	9.1039E-05	4.580991
-2.60049	-1.774E-10	4.639828	0.1000002	9.056E-05	4.639828
-2.80048	-1.952E-10	4.664358	0.1000001	9.0078E-05	4.664358
-3.00048	-1.828E-10	4.688839	0.0999998	8.9595E-05	4.688839
-3.20051	-2.153E-10	4.713434	0.1	8.9111E-05	4.713434
-3.4005	-2E-10	4.741397	0.1000052	8.85502E-05	4.741397
-3.6005	-2.25E-10	4.76591	0.1000049	8.80642E-05	4.76591
-3.8005	-2.235E-10	4.790437	0.1000048	8.75777E-05	4.790437
-4.00048	-2.252E-10	4.815044	0.1000057	8.70909E-05	4.815044
-4.20049	-2.501E-10	4.839573	0.1000051	8.66012E-05	4.839573
-4.40048	-2.419E-10	4.864083	0.1000052	8.61108E-05	4.864083
-4.60048	-2.191E-10	4.888634	0.1000045	8.56183E-05	4.888634
-4.80047	-2.509E-10	4.913152	0.1000054	8.51253E-05	4.913152
-5.0005	-2.578E-10	4.937684	0.1000054	8.46299E-05	4.937684
-5.20048	-2.492E-10	4.962221	0.1000052	8.41344E-05	4.962221
-5.40049	-2.591E-10	4.986745	0.1000059	8.36372E-05	4.986745
-5.6005	-2.626E-10	5.011259	0.1000051	8.31363E-05	5.011259
-5.80049	-2.74E-10	5.035778	0.1000054	8.26354E-05	5.035778
-6.00048	-2.602E-10	5.060357	0.1000057	8.21326E-05	5.060357
-6.20048	-2.677E-10	5.08488	0.1000054	8.16275E-05	5.08488
-6.40049	-2.134E-10	5.144225	0.1000049	8.11235E-05	5.144225
-6.60049	-2.336E-10	5.168768	0.1000051	8.06136E-05	5.168768
-6.80049	-2.705E-10	5.193308	0.1000052	8.01037E-05	5.193308
-7.00051	-2.803E-10	5.217832	0.1000055	7.95918E-05	5.217832
-7.20049	-2.652E-10	5.24239	0.1000057	7.90774E-05	5.24239
-7.4005	-2.741E-10	5.266917	0.1000048	7.85608E-05	5.266917
-7.60047	-2.862E-10	5.291438	0.100006	7.80443E-05	5.291438
-7.80048	-1.805E-10	5.316058	0.1000062	7.75243E-05	5.316058
-8.00049	-2.742E-10	5.340568	0.1000064	7.70014E-05	5.340568
-8.20048	-2.84E-10	5.365133	0.1000071	7.64782E-05	5.365133
-8.40049	-2.905E-10	5.389693	0.1000066	7.59512E-05	5.389693
-8.6005	-2.865E-10	5.414227	0.1000065	7.54234E-05	5.414227
-8.80049	-3.006E-10	5.438734	0.100006	7.48927E-05	5.438734
-9.0005	-3.096E-10	5.463278	0.1000054	7.43589E-05	5.463278
-9.20047	-3.048E-10	5.487795	0.1000063	7.38262E-05	5.487795
-9.40047	-3.07E-10	5.512315	0.1000062	7.32881E-05	5.512315
-9.6005	-3.149E-10	5.536832	0.100007	7.27514E-05	5.536832
-9.80047	-4.653E-10	5.561354	0.1000075	7.22139E-05	5.561354
-10.0005	-3.227E-10	5.585858	0.1000064	7.16721E-05	5.585858
-10.20048	-2.788E-10	5.643297	0.1000056	7.11368E-05	5.643297
-10.40051	-2.886E-10	5.667825	0.1000065	7.05927E-05	5.667825
-10.60048	-3.158E-10	5.692356	0.1000082	7.0045E-05	5.692356
-10.80048	-3.38E-10	5.716916	0.1000072	6.94944E-05	5.716916
-11.00049	-3.268E-10	5.741501	0.1000073	6.89425E-05	5.741501
-11.20048	-3.182E-10	5.766026	0.100007	6.83876E-05	5.766026
-11.40049	-3.352E-10	5.790561	0.100006	6.78298E-05	5.790561
-11.6005	-3.465E-10	5.815172	0.1000067	6.72703E-05	5.815172
-11.80051	-3.366E-10	5.839702	0.1000063	6.67085E-05	5.839702
-12.00048	-3.368E-10	5.864205	0.1000069	6.61449E-05	5.864205
#scan	iMeasureCycle=2	iMux=0	time=279.751	N=222	LocalTime=22/06/2023 07:37:31
#VGate(V)	IGate(A)	time(s)	VDrain(V)	IDrain(A)	time(s)
-12.00049	-7.28E-11	279.758672	0.1000078	6.61886E-05	279.758672
-11.80049	-1.02E-11	279.783519	0.1000066	6.67551E-05	279.783519
-11.60047	1.66E-11	279.809125	0.1000059	6.7319E-05	279.809125
-11.4005	3.49E-11	279.83371	0.1000071	6.78824E-05	279.83371
-11.20049	4.27E-11	279.858235	0.1000064	6.84412E-05	279.858235
-11.00049	5.84E-11	279.88277	0.1000072	6.89988E-05	279.88277
-10.80049	6.84E-11	279.907299	0.1000076	6.95541E-05	279.907299
-10.60051	8.17E-11	279.931835	0.100006	7.01068E-05	279.931835
-10.40048	8.2E-11	279.956359	0.100007	7.06578E-05	279.956359
-10.20051	9.94E-11	279.980881	0.100007	7.12057E-05	279.980881
-10.00049	1.002E-10	280.005392	0.1000068	7.17527E-05	280.005392
-9.80046	7.17E-11	280.03003	0.1000068	7.22973E-05	280.03003
-9.60053	7.74E-11	280.054543	0.1000067	7.28392E-05	280.054543
-9.4005	1.192E-10	280.079074	0.1000059	7.33795E-05	280.079074
-9.2005	1.155E-10	280.103585	0.100006	7.39181E-05	280.103585
-9.00048	1.172E-10	280.128109	0.1000064	7.44509E-05	280.128109
-8.80048	1.466E-10	280.152626	0.1000055	7.49803E-05	280.152626
-8.6005	1.347E-10	280.177189	0.1000059	7.55081E-05	280.177189
-8.4005	1.407E-10	280.201704	0.1000053	7.60325E-05	280.201704
-8.2005	1.569E-10	280.22622	0.1000057	7.65565E-05	280.22622
-8.0005	1.55E-10	280.250734	0.1000057	7.70781E-05	280.250734
-7.80049	1.593E-10	280.275327	0.1000063	7.7598E-05	280.275327
-7.60051	1.155E-10	280.321516	0.1000053	7.81127E-05	280.321516
-7.40049	1.475E-10	280.346045	0.1000058	7.863E-05	280.346045
-7.2005	1.737E-10	280.370523	0.1000046	7.91446E-05	280.370523
-7.0005	1.735E-10	280.395032	0.100005	7.96579E-05	280.395032
-6.80049	1.783E-10	280.419602	0.1000057	8.01709E-05	280.419602
-6.60049	1.768E-10	280.444141	0.1000053	8.06798E-05	280.444141
-6.4005	1.998E-10	280.468665	0.1000053	8.11863E-05	280.468665
-6.2005	1.85E-10	280.49318	0.1000052	8.1693E-05	280.49318
-6.00049	1.876E-10	280.517696	0.1000047	8.2197E-05	280.517696
-5.8005	2.135E-10	280.542231	0.1000049	8.26998E-05	280.542231
-5.60048	2.004E-10	280.566752	0.1000054	8.32012E-05	280.566752
-5.40051	2.038E-10	280.591287	0.1000053	8.37009E-05	280.591287
-5.20051	2.197E-10	280.615796	0.1000047	8.41982E-05	280.615796
-5.00049	2.128E-10	280.640318	0.1000058	8.46946E-05	280.640318
-4.80049	2.184E-10	280.664827	0.1000049	8.51891E-05	280.664827
-4.60048	2.149E-10	280.689348	0.1000047	8.56826E-05	280.689348
-4.40051	2.321E-10	280.71386	0.1000049	8.61748E-05	280.71386
-4.2005	2.409E-10	280.738398	0.100005	8.66654E-05	280.738398
-4.00052	2.232E-10	280.763046	0.1000046	8.71543E-05	280.763046
-3.8005	1.933E-10	280.823236	0.1000044	8.76399E-05	280.823236
-3.6005	2.135E-10	280.847837	0.1000044	8.8128E-05	280.847837
-3.40049	2.231E-10	280.872355	0.1000046	8.86155E-05	280.872355
-3.2005	2.327E-10	280.896902	0.100004	8.90996E-05	280.896902
-3.0005	2.521E-10	280.921451	0.100004	8.95853E-05	280.921451
-2.80051	2.441E-10	280.945977	0.1000048	9.00694E-05	280.945977
-2.60051	2.339E-10	280.970505	0.1000041	9.05495E-05	280.970505
-2.40049	3.372E-10	280.995029	0.1000054	9.10335E-05	280.995029
-2.20052	2.695E-10	281.019551	0.1000054	9.15149E-05	281.019551
-2.0005	2.614E-10	281.044051	0.1000048	9.19948E-05	281.044051
-1.8005	2.773E-10	281.068576	0.1000051	9.24764E-05	281.068576
-1.60049	2.728E-10	281.093101	0.1000049	9.29591E-05	281.093101
-1.40051	2.769E-10	281.117616	0.1000049	9.34454E-05	281.117616
-1.2005	2.766E-10	281.142136	0.100005	9.39389E-05	281.142136
-1.00052	2.854E-10	281.16673	0.1000056	9.44421E-05	281.16673
-0.80051	2.873E-10	281.191259	0.1000039	9.49524E-05	281.191259
-0.6005	2.837E-10	281.215791	0.1000041	9.54746E-05	281.215791
-0.40048	2.934E-10	281.240317	0.1000039	9.60049E-05	281.240317
-0.20049	3.005E-10	281.26501	0.1000044	9.65413E-05	281.26501
-0.0005	2.389E-10	281.324796	0.1000039	9.70774E-05	281.324796
0.19948	2.699E-10	281.349354	0.1000045	9.76262E-05	281.349354
0.39951	2.903E-10	281.373886	0.100003	9.81727E-05	281.373886
0.59951	2.932E-10	281.398432	0.1000047	9.87253E-05	281.398432
0.79948	2.923E-10	281.422999	0.1000038	9.92757E-05	281.422999
0.99951	2.736E-10	281.447511	0.1000043	9.98289E-05	281.447511
1.19948	2.694E-10	281.47203	0.1000038	0.0001003831	281.47203
1.39948	2.948E-10	281.496558	0.1000037	0.0001009395	281.496558
1.59951	3.101E-10	281.521077	0.1000039	0.0001014976	281.521077
1.79948	3.126E-10	281.545589	0.1000042	0.0001020567	281.545589
1.99948	3.074E-10	281.570113	0.1000041	0.0001026178	281.570113
2.19949	3.199E-10	281.594636	0.1000037	0.0001031807	281.594636
2.39949	3.356E-10	281.619139	0.100004	0.0001037445	281.619139
2.59951	3.22E-10	281.643666	0.1000041	0.0001043083	281.643666
2.79951	3.152E-10	281.673231	0.1000001	0.000104947	281.673231
2.9995	3.277E-10	281.697758	0.0999999	0.000105513	281.697758
3.1995	3.244E-10	281.722264	0.1	0.000106076	281.722264
3.39949	3.51E-10	281.746776	0.1000001	0.00010664	281.746776
3.59949	3.4E-10	281.771373	0.1000002	0.000107204	281.771373
3.79949	2.832E-10	281.829535	0.0999999	0.000107764	281.829535
3.99948	3.377E-10	281.85406	0.1	0.000108326	281.85406
4.19949	3.317E-10	281.878603	0.0999999	0.000108889	281.878603
4.39948	3.24E-10	281.903123	0.1	0.000109448	281.903123
4.59948	3.585E-10	281.927705	0.1000001	0.000110007	281.927705
4.79948	3.538E-10	281.952218	0.0999998	0.000110562	281.952218
4.99948	3.469E-10	281.976812	0.1	0.000111114	281.976812
5.19949	3.559E-10	282.001331	0.1	0.000111666	282.001331
5.3995	3.695E-10	282.025946	0.1	0.000112212	282.025946
5.5995	3.596E-10	282.050461	0.1	0.000112757	282.050461
5.7995	3.603E-10	282.074998	0.1	0.000113296	282.074998
5.9995	3.697E-10	282.099599	0.1	0.000113837	282.099599
6.1995	3.806E-10	282.124114	0.1000001	0.000114373	282.124114
6.3995	3.734E-10	282.148633	0.0999999	0.000114904	282.148633
6.59949	3.74E-10	282.173207	0.0999998	0.000115433	282.173207
6.79951	3.959E-10	282.197725	0.1000001	0.000115958	282.197725
6.99948	3.859E-10	282.22226	0.1000001	0.000116483	282.22226
7.19948	3.726E-10	282.246763	0.0999997	0.000117003	282.246763
7.39949	4.032E-10	282.27137	0.1000002	0.000117521	282.27137
7.59949	3.483E-10	282.32376	0.1000001	0.000118032	282.32376
7.79949	3.661E-10	282.348289	0.1000001	0.000118542	282.348289
7.99949	3.759E-10	282.372807	0.1	0.000119051	282.372807
8.19948	5.203E-10	282.397348	0.0999999	0.000119557	282.397348
8.39949	4.121E-10	282.421911	0.0999998	0.000120057	282.421911
8.5995	3.907E-10	282.446458	0.1	0.00012056	282.446458
8.79949	4.084E-10	282.470968	0.1	0.000121057	282.470968
8.99948	4.103E-10	282.495508	0.0999999	0.000121546	282.495508
9.19948	4.071E-10	282.520075	0.1	0.000122039	282.520075
9.3995	4.084E-10	282.544587	0.0999999	0.000122533	282.544587
9.59948	4.157E-10	282.5691	0.1	0.000123022	282.5691
9.79948	4.172E-10	282.593671	0.1000001	0.00012351	282.593671
9.99948	4.203E-10	282.618174	0.1	0.000123996	282.618174
9.99949	3.67E-10	282.641534	0.1000001	0.000123995	282.641534
9.79949	2.816E-10	282.66604	0.1	0.000123513	282.66604
9.5995	2.397E-10	282.690571	0.0999999	0.000123028	282.690571
9.3995	2.189E-10	282.715093	0.0999998	0.000122541	282.715093
9.19951	1.894E-10	282.739616	0.1000001	0.00012205	282.739616
8.99951	1.618E-10	282.764224	0.0999997	0.000121559	282.764224
8.79951	1.479E-10	282.788917	0.0999999	0.000121062	282.788917
8.59947	1.717E-10	282.83046	0.0999996	0.000120559	282.83046
8.39951	1.325E-10	282.855038	0.1000001	0.00012005	282.855038
8.19949	-3.8E-11	282.879567	0.0999999	0.000119539	282.879567
7.99949	8.68E-11	282.904089	0.0999999	0.000119023	282.904089
7.7995	7.72E-11	282.928655	0.0999999	0.000118507	282.928655
7.59951	5.67E-11	282.953172	0.1	0.000117992	282.953172
7.39948	6.5E-11	282.977711	0.1000001	0.000117469	282.977711
7.19952	5.49E-11	283.002226	0.1000002	0.000116946	283.002226
6.99947	2.47E-11	283.026748	0.0999999	0.000116418	283.026748
6.79951	2.7E-11	283.051256	0.1	0.000115889	283.051256
6.59949	3.75E-11	283.075785	0.1000001	0.000115359	283.075785
6.3995	6.2E-12	283.10025	0.0999999	0.000114824	283.10025
6.19948	8E-13	283.12479	0.0999999	0.000114286	283.12479
5.9995	1.6E-12	283.14929	0.1000001	0.000113746	283.14929
5.7995	-9.3E-12	283.173879	0.1	0.000113201	283.173879
5.59948	-8.5E-12	283.198399	0.0999999	0.000112655	283.198399
5.3995	-2.4E-11	283.222937	0.1	0.000112104	283.222937
5.19949	-2.03E-11	283.247438	0.0999998	0.000111556	283.247438
4.9995	-3.28E-11	283.272075	0.0999999	0.000111	283.272075
4.79949	1.58E-11	283.327137	0.1	0.000110445	283.327137
4.59949	-3.52E-11	283.351671	0.1000001	0.000109886	283.351671
4.39951	-3.58E-11	283.376235	0.0999998	0.000109324	283.376235
4.19948	-4.04E-11	283.400756	0.1	0.000108761	283.400756
3.99951	-6.44E-11	283.425348	0.1	0.000108196	283.425348
3.79949	-6.67E-11	283.449869	0.1000002	0.00010763	283.449869
3.5995	-5.77E-11	283.4744	0.1	0.000107065	283.4744
3.39948	-8.27E-11	283.498928	0.0999998	0.000106498	283.498928
3.19952	-8.01E-11	283.523496	0.1	0.000105929	283.523496
2.9995	-9.39E-11	283.548017	0.1000002	0.000105362	283.548017
2.7995	-9.6E-11	283.572537	0.0999999	0.000104796	283.572537
2.59951	-9.01E-11	283.597062	0.1000001	0.000104228	283.597062
2.39949	-1.078E-10	283.621592	0.0999999	0.000103663	283.621592
2.19952	-9.66E-11	283.6461	0.0999998	0.000103098	283.6461
1.99952	-1.102E-10	283.670674	0.0999998	0.000102536	283.670674
1.7995	-1.3E-10	283.695286	0.1	0.000101972	283.695286
1.59953	-1.128E-10	283.719816	0.1000002	0.000101412	283.719816
1.39952	-1.209E-10	283.744348	0.1	0.000100853	283.744348
1.1995	-1.452E-10	283.768956	0.1000001	0.000100296	283.768956
0.9995	-6.1E-11	283.831331	0.1000002	9.9746E-05	283.831331
0.7995	-9.77E-11	283.855927	0.1	9.919E-05	283.855927
0.59951	-1.162E-10	283.880444	0.1	9.8636E-05	283.880444
0.39951	-1.319E-10	283.904973	0.1	9.8085E-05	283.904973
0.1995	-1.391E-10	283.929537	0.1	9.7536E-05	283.929537
-0.00049	-1.378E-10	283.954053	0.1	9.6989E-05	283.954053
-0.20051	-1.363E-10	283.978558	0.1	9.645E-05	283.978558
-0.40049	-1.641E-10	284.003071	0.1	9.5916E-05	284.003071
-0.60048	-1.684E-10	284.027696	0.1000001	9.5387E-05	284.027696
-0.8005	-1.573E-10	284.052215	0.1	9.4871E-05	284.052215
-1.0005	-1.732E-10	284.076749	0.0999999	9.4365E-05	284.076749
-1.20048	-1.882E-10	284.101263	0.1	9.387E-05	284.101263
-1.40049	-1.748E-10	284.125802	0.0999998	9.3382E-05	284.125802
-1.6005	-1.876E-10	284.150318	0.1000001	9.2899E-05	284.150318
-1.80051	-1.913E-10	284.174901	0.0999999	9.242E-05	284.174901
-2.00049	-1.908E-10	284.199434	0.0999998	9.1938E-05	284.199434
-2.20047	-2.075E-10	284.223983	0.1	9.1457E-05	284.223983
-2.40049	-2.075E-10	284.248515	0.1000002	9.0979E-05	284.248515
-2.60051	-2.096E-10	284.273128	0.0999999	9.0498E-05	284.273128
-2.80048	-1.572E-10	284.334834	0.1	9.0019E-05	284.334834
-3.00049	-1.958E-10	284.359367	0.1	8.9536E-05	284.359367
-3.2005	-2.171E-10	284.383931	0.0999998	8.9053E-05	284.383931
-3.40046	-2.252E-10	284.40846	0.0999999	8.8568E-05	284.40846
-3.60049	-2.07E-10	284.433033	0.1	8.8082E-05	284.433033
-3.80049	-1.896E-10	284.460882	0.1000052	8.75171E-05	284.460882
-4.0005	-2.297E-10	284.485424	0.1000043	8.70282E-05	284.485424
-4.20049	-2.355E-10	284.509996	0.1000041	8.65396E-05	284.509996
-4.4005	-2.324E-10	284.53453	0.1000053	8.60512E-05	284.53453
-4.60047	-2.287E-10	284.559055	0.1000045	8.55571E-05	284.559055
-4.80047	-2.44E-10	284.583588	0.100005	8.50644E-05	284.583588
-5.00049	-2.653E-10	284.608099	0.1000049	8.45702E-05	284.608099
-5.2005	-2.401E-10	284.632613	0.100005	8.40743E-05	284.632613
-5.40049	-2.444E-10	284.657117	0.100005	8.35767E-05	284.657117
-5.60049	-2.632E-10	284.681634	0.1000047	8.30769E-05	284.681634
-5.80049	-2.6E-10	284.706251	0.1000048	8.25755E-05	284.706251
-6.00049	-2.598E-10	284.73076	0.1000052	8.20719E-05	284.73076
-6.20048	-2.712E-10	284.755285	0.1000054	8.15683E-05	284.755285
-6.40048	-2.653E-10	284.779875	0.1000049	8.10607E-05	284.779875
-6.6005	-2.005E-10	284.839627	0.1000058	8.05568E-05	284.839627
-6.80049	-2.466E-10	284.864449	0.1000056	8.00467E-05	284.864449
-7.00048	-2.818E-10	284.888981	0.1000055	7.95331E-05	284.888981
-7.20049	-2.503E-10	284.913505	0.1000057	7.90187E-05	284.913505
-7.40047	-2.623E-10	284.938077	0.1000059	7.85037E-05	284.938077
-7.60048	-2.894E-10	284.962585	0.1000056	7.79851E-05	284.962585
-7.80048	-2.84E-10	284.987154	0.1000051	7.74648E-05	284.987154
-8.00049	-2.702E-10	285.011675	0.1000058	7.69426E-05	285.011675
-8.20048	-2.902E-10	285.036202	0.1000062	7.64195E-05	285.036202
-8.40048	-3.002E-10	285.06073	0.1000053	7.58912E-05	285.06073
-8.60048	-2.902E-10	285.085238	0.1000056	7.53629E-05	285.085238
-8.80048	-2.921E-10	285.10978	0.1000066	7.48329E-05	285.10978
-9.0005	-3.002E-10	285.134302	0.1000063	7.43E-05	285.134302
-9.20047	-3.011E-10	285.15883	0.1000058	7.37668E-05	285.15883
-9.40048	-3.038E-10	285.183387	0.1000061	7.32298E-05	285.183387
-9.60049	-9.57E-11	285.207999	0.1000055	7.269E-05	285.207999
-9.80048	-2.875E-10	285.232523	0.1000061	7.21529E-05	285.232523
-10.00047	-2.864E-10	285.257069	0.1000068	7.1613E-05	285.257069
-10.20048	-3.086E-10	285.28167	0.1000073	7.10709E-05	285.28167
-10.40048	-2.439E-10	285.338203	0.1000072	7.05331E-05	285.338203
-10.60047	-3.021E-10	285.362727	0.1000062	6.99836E-05	285.362727
-10.80045	-3.184E-10	285.387258	0.1000072	6.94338E-05	285.387258
-11.00047	-3.067E-10	285.411714	0.1000078	6.88816E-05	285.411714
-11.2005	-3.047E-10	285.4363	0.1000068	6.83268E-05	285.4363
-11.40047	-3.24E-10	285.460807	0.100007	6.77689E-05	285.460807
-11.6005	-3.281E-10	285.485336	0.1000072	6.72093E-05	285.485336
-11.80049	-3.168E-10	285.509883	0.1000067	6.66479E-05	285.509883
-12.00048	-3.267E-10	285.534438	0.1000073	6.60835E-05	285.534438
#scan	iMeasureCycle=3	iMux=0	time=319.783	N=222	LocalTime=22/06/2023 07:38:11
#VGate(V)	IGate(A)	time(s)	VDrain(V)	IDrain(A)	time(s)
-12.00046	-5.85E-11	319.790559	0.1000065	6.61724E-05	319.790559
-11.80048	-1.07E-11	319.815432	0.100006	6.67392E-05	319.815432
-11.6005	-1.2E-11	319.841118	0.100007	6.73042E-05	319.841118
-11.40049	1.62E-11	319.865678	0.1000052	6.78639E-05	319.865678
-11.20048	6.26E-11	319.890198	0.1000053	6.84245E-05	319.890198
-11.00047	4.83E-11	319.914778	0.1000067	6.89824E-05	319.914778
-10.80049	4.92E-11	319.939292	0.100006	6.95367E-05	319.939292
-10.6005	8.54E-11	319.963814	0.1000055	7.0089E-05	319.963814
-10.40049	9.14E-11	319.988382	0.1000066	7.06407E-05	319.988382
-10.20048	9.32E-11	320.012905	0.1000059	7.11884E-05	320.012905
-10.0005	9.12E-11	320.037598	0.1000055	7.17331E-05	320.037598
-9.8005	9.68E-11	320.062114	0.1000057	7.22799E-05	320.062114
-9.60047	1.2E-10	320.086646	0.1000063	7.28221E-05	320.086646
-9.40049	1.176E-10	320.11116	0.1000057	7.33633E-05	320.11116
-9.20049	1.257E-10	320.1357	0.1000058	7.39017E-05	320.1357
-9.00049	1.303E-10	320.160211	0.1000057	7.44341E-05	320.160211
-8.8005	1.265E-10	320.184741	0.100005	7.49642E-05	320.184741
-8.60049	1.367E-10	320.209249	0.1000051	7.54907E-05	320.209249
-8.40049	1.645E-10	320.233903	0.100006	7.60167E-05	320.233903
-8.2005	1.389E-10	320.258426	0.1000049	7.65396E-05	320.258426
-8.0005	1.42E-10	320.282944	0.1000052	7.70606E-05	320.282944
-7.8005	1.682E-10	320.307452	0.100006	7.75807E-05	320.307452
-7.60049	1.299E-10	320.353605	0.1000053	7.80946E-05	320.353605
-7.40049	1.582E-10	320.378154	0.1000056	7.86121E-05	320.378154
-7.2005	1.475E-10	320.40268	0.1000061	7.91273E-05	320.40268
-7.00052	1.673E-10	320.427211	0.1000051	7.96398E-05	320.427211
-6.80049	1.943E-10	320.451773	0.1000051	8.01512E-05	320.451773
-6.60048	1.803E-10	320.476558	0.1000047	8.06599E-05	320.476558
-6.4005	1.745E-10	320.501085	0.1000052	8.11681E-05	320.501085
-6.20048	1.902E-10	320.525592	0.1000045	8.16731E-05	320.525592
-6.00048	2.088E-10	320.550128	0.1000052	8.21781E-05	320.550128
-5.80051	1.97E-10	320.574693	0.1000046	8.26801E-05	320.574693
-5.6005	1.902E-10	320.599228	0.1000052	8.3181E-05	320.599228
-5.40051	2.166E-10	320.623735	0.1000048	8.36806E-05	320.623735
-5.2005	2.107E-10	320.648359	0.1000052	8.41782E-05	320.648359
-5.00051	2.077E-10	320.672871	0.100005	8.46742E-05	320.672871
-4.8005	2.158E-10	320.69741	0.1000048	8.51679E-05	320.69741
-4.6005	3.24E-10	320.721921	0.1000053	8.56625E-05	320.721921
-4.4005	2.427E-10	320.746496	0.1000049	8.61549E-05	320.746496
-4.2005	2.382E-10	320.771021	0.1000059	8.66452E-05	320.771021
-4.00049	2.449E-10	320.795546	0.1000051	8.7134E-05	320.795546
-3.80048	1.767E-10	320.855428	0.1000051	8.76191E-05	320.855428
-3.60049	2.189E-10	320.879961	0.1000051	8.81077E-05	320.879961
-3.40049	2.362E-10	320.904552	0.1000049	8.85941E-05	320.904552
-3.20051	7.1E-11	320.929069	0.1000047	8.90786E-05	320.929069
-3.00051	2.277E-10	320.953642	0.1000043	8.95633E-05	320.953642
-2.8005	2.394E-10	320.978189	0.1000044	9.00458E-05	320.978189
-2.60051	2.43E-10	321.002744	0.1000042	9.05283E-05	321.002744
-2.40051	2.531E-10	321.027265	0.1000048	9.10086E-05	321.027265
-2.20052	2.545E-10	321.051813	0.100005	9.14905E-05	321.051813
-2.0005	2.683E-10	321.076327	0.1000043	9.19704E-05	321.076327
-1.80051	2.547E-10	321.100859	0.1000043	9.24501E-05	321.100859
-1.6005	2.506E-10	321.125376	0.1000046	9.29339E-05	321.125376
-1.4005	2.778E-10	321.149955	0.1000041	9.34199E-05	321.149955
-1.20052	2.793E-10	321.174469	0.1000046	9.39128E-05	321.174469
-1.00052	2.642E-10	321.199009	0.1000045	9.44145E-05	321.199009
-0.80051	2.688E-10	321.223526	0.1000041	9.49264E-05	321.223526
-0.6005	2.975E-10	321.2481	0.1000038	9.54485E-05	321.2481
-0.40051	2.931E-10	321.272646	0.1000042	9.59779E-05	321.272646
-0.20052	2.837E-10	321.297163	0.1000044	9.65153E-05	321.297163
-0.00051	2.471E-10	321.357076	0.1000043	9.7051E-05	321.357076
0.19947	2.69E-10	321.3816	0.1000033	9.75972E-05	321.3816
0.39952	2.815E-10	321.406135	0.1000041	9.81479E-05	321.406135
0.59948	2.996E-10	321.430653	0.1000038	9.86953E-05	321.430653
0.79947	2.974E-10	321.455237	0.1000035	9.92488E-05	321.455237
0.99949	3.005E-10	321.479783	0.1000041	9.98025E-05	321.479783
1.19949	2.954E-10	321.504303	0.1000037	0.0001003573	321.504303
1.39948	3.153E-10	321.528812	0.100004	0.0001009138	321.528812
1.5995	3.229E-10	321.553316	0.1000035	0.0001014721	321.553316
1.79949	3.011E-10	321.577882	0.1000038	0.000102031	321.577882
1.99948	3.121E-10	321.602399	0.1000037	0.0001025909	321.602399
2.1995	3.314E-10	321.626923	0.100004	0.0001031546	321.626923
2.39949	3.249E-10	321.651425	0.1000033	0.0001037173	321.651425
2.5995	3.265E-10	321.675953	0.100003	0.0001042818	321.675953
2.7995	2.594E-10	321.722906	0.1	0.000104918	321.722906
2.99948	3.212E-10	321.747433	0.1000001	0.000105482	321.747433
3.1995	3.37E-10	321.771976	0.0999999	0.000106047	321.771976
3.39947	3.174E-10	321.796508	0.1	0.000106612	321.796508
3.59949	2.588E-10	321.859837	0.1000002	0.00010717	321.859837
3.79949	3.064E-10	321.884458	0.1000001	0.000107737	321.884458
3.99949	3.295E-10	321.909027	0.0999997	0.0001083	321.909027
4.19948	3.225E-10	321.933568	0.0999999	0.000108862	321.933568
4.39947	3.213E-10	321.95814	0.0999999	0.000109422	321.95814
4.59949	3.284E-10	321.982707	0.1	0.000109979	321.982707
4.79948	3.61E-10	322.00722	0.1000002	0.000110537	322.00722
4.99951	3.522E-10	322.031827	0.0999999	0.000111089	322.031827
5.19948	3.359E-10	322.056332	0.1	0.000111642	322.056332
5.39948	3.7E-10	322.080845	0.1	0.000112188	322.080845
5.5995	3.588E-10	322.105357	0.1000001	0.000112731	322.105357
5.79949	5.236E-10	322.1299	0.1	0.000113274	322.1299
5.99949	3.996E-10	322.154408	0.0999999	0.000113813	322.154408
6.19949	3.841E-10	322.178993	0.1000001	0.00011435	322.178993
6.39948	3.796E-10	322.203507	0.0999998	0.000114881	322.203507
6.59951	3.778E-10	322.228018	0.1	0.000115412	322.228018
6.79949	3.876E-10	322.252613	0.1	0.000115938	322.252613
6.9995	3.865E-10	322.277088	0.0999999	0.000116461	322.277088
7.1995	3.689E-10	322.301618	0.1000001	0.000116982	322.301618
7.39949	3.217E-10	322.359918	0.1	0.000117494	322.359918
7.59949	3.478E-10	322.384513	0.0999999	0.000118008	322.384513
7.79949	3.683E-10	322.409051	0.0999999	0.00011852	322.409051
7.99949	3.795E-10	322.433559	0.0999999	0.000119026	322.433559
8.19946	3.754E-10	322.458137	0.0999999	0.000119534	322.458137
8.3995	3.731E-10	322.482682	0.1000001	0.000120037	322.482682
8.59947	3.937E-10	322.507227	0.1	0.000120535	322.507227
8.79949	3.99E-10	322.531736	0.0999999	0.000121034	322.531736
8.9995	3.875E-10	322.556275	0.0999999	0.000121526	322.556275
9.19949	3.823E-10	322.580854	0.0999998	0.000122017	322.580854
9.39949	4.16E-10	322.605384	0.1000003	0.00012251	322.605384
9.59949	4.13E-10	322.629902	0.1	0.000123	322.629902
9.7995	3.911E-10	322.654405	0.0999999	0.00012349	322.654405
9.99949	4.179E-10	322.678926	0.1000002	0.000123974	322.678926
9.99946	3.456E-10	322.702283	0.0999999	0.000123975	322.702283
9.79947	2.629E-10	322.726785	0.0999998	0.000123492	322.726785
9.59948	2.519E-10	322.751319	0.1000001	0.000123003	322.751319
9.39952	2.09E-10	322.775837	0.1000003	0.000122519	322.775837
9.1995	1.735E-10	322.800371	0.1000001	0.000122025	322.800371
8.99951	1.876E-10	322.857201	0.1000001	0.000121533	322.857201
8.79951	1.364E-10	322.881805	0.1000001	0.000121036	322.881805
8.5995	1.221E-10	322.906423	0.0999999	0.00012053	322.906423
8.3995	1.267E-10	322.930938	0.0999999	0.000120023	322.930938
8.19947	9.27E-11	322.955517	0.1000002	0.000119512	322.955517
7.99951	7.21E-11	322.980051	0.1000002	0.000118996	322.980051
7.7995	8.63E-11	323.004585	0.1000003	0.000118481	323.004585
7.5995	7.35E-11	323.029097	0.1	0.00011796	323.029097
7.39949	4.87E-11	323.053622	0.1000002	0.00011744	323.053622
7.19951	4.42E-11	323.078126	0.1000001	0.000116916	323.078126
6.99949	3.71E-11	323.102655	0.1	0.000116391	323.102655
6.79951	2.5E-11	323.127153	0.0999999	0.000115861	323.127153
6.59951	2.42E-11	323.151677	0.1	0.000115326	323.151677
6.39948	1.3E-11	323.176196	0.1000002	0.000114791	323.176196
6.19949	6.6E-12	323.200734	0.0999998	0.000114255	323.200734
5.99949	-1.76E-11	323.225243	0.0999999	0.000113711	323.225243
5.79951	-1.25E-11	323.249849	0.0999999	0.000113169	323.249849
5.59951	-2E-13	323.274385	0.0999999	0.000112623	323.274385
5.39949	-3.3E-11	323.298914	0.1	0.000112073	323.298914
5.19951	4.13E-11	323.347147	0.0999999	0.00011152	323.347147
4.9995	-1.53E-11	323.371753	0.1	0.000110967	323.371753
4.79949	-3.76E-11	323.396372	0.1000001	0.000110409	323.396372
4.59951	-3.88E-11	323.420913	0.1000001	0.00010985	323.420913
4.39948	-2.73E-11	323.447113	0.1000001	0.000109287	323.447113
4.1995	-3.93E-11	323.471631	0.0999999	0.000108723	323.471631
3.99949	-7.17E-11	323.496214	0.1000001	0.000108157	323.496214
3.79949	-7.62E-11	323.520734	0.1	0.000107591	323.520734
3.59953	7.52E-11	323.54526	0.0999999	0.000107023	323.54526
3.39948	-6.33E-11	323.569783	0.1000002	0.000106456	323.569783
3.19951	-8.38E-11	323.594432	0.1	0.000105888	323.594432
2.9995	-7.42E-11	323.618943	0.0999999	0.000105321	323.618943
2.79949	-9.55E-11	323.643461	0.1	0.000104753	323.643461
2.59951	-9.5E-11	323.667963	0.1	0.000104185	323.667963
2.3995	-9.33E-11	323.692452	0.1000001	0.000103619	323.692452
2.19951	-1.068E-10	323.716977	0.0999997	0.000103053	323.716977
1.9995	-2.353E-10	323.741491	0.0999999	0.000102486	323.741491
1.7995	-1.239E-10	323.766	0.0999999	0.000101926	323.766
1.59952	-1.252E-10	323.790524	0.1000002	0.000101365	323.790524
1.39949	-1.339E-10	323.815045	0.1000001	0.000100805	323.815045
1.19952	-8.11E-11	323.864852	0.1000001	0.00010025	323.864852
0.9995	-1.098E-10	323.889465	0.1	9.9694E-05	323.889465
0.79949	-1.427E-10	323.914031	0.1	9.9138E-05	323.914031
0.59952	-1.476E-10	323.938573	0.0999998	9.8586E-05	323.938573
0.39952	-1.398E-10	323.963136	0.1	9.8035E-05	323.963136
0.19948	-1.494E-10	323.987726	0.1	9.7484E-05	323.987726
-0.00051	-1.459E-10	324.012267	0.1000001	9.6939E-05	324.012267
-0.20051	-1.616E-10	324.036852	0.1	9.6398E-05	324.036852
-0.4005	-1.578E-10	324.061376	0.0999999	9.5861E-05	324.061376
-0.60051	-1.731E-10	324.08597	0.1	9.5333E-05	324.08597
-0.80049	-1.812E-10	324.110501	0.1000001	9.4818E-05	324.110501
-1.0005	-1.71E-10	324.135007	0.0999999	9.4313E-05	324.135007
-1.20049	-1.865E-10	324.159533	0.0999998	9.3817E-05	324.159533
-1.40051	-2.043E-10	324.18401	0.1	9.3329E-05	324.18401
-1.60048	-1.816E-10	324.208551	0.1000001	9.2847E-05	324.208551
-1.8005	-1.894E-10	324.233066	0.1	9.2365E-05	324.233066
-2.00049	-2.104E-10	324.25765	0.0999999	9.1884E-05	324.25765
-2.2005	-2.173E-10	324.282177	0.0999997	9.1406E-05	324.282177
-2.40048	-1.981E-10	324.306714	0.1	9.0927E-05	324.306714
-2.60048	-1.577E-10	324.36651	0.0999999	9.0445E-05	324.36651
-2.80051	-1.972E-10	324.391132	0.1000001	8.9962E-05	324.391132
-3.00049	-1.919E-10	324.415685	0.1	8.9479E-05	324.415685
-3.20049	-2.164E-10	324.440217	0.1000001	8.8996E-05	324.440217
-3.4005	-2.126E-10	324.464793	0.0999999	8.8512E-05	324.464793
-3.60048	-2E-10	324.492671	0.1000049	8.79495E-05	324.492671
-3.80048	-2.322E-10	324.517214	0.1000048	8.74615E-05	324.517214
-4.00048	-2.178E-10	324.541733	0.1000048	8.69744E-05	324.541733
-4.20048	-2.328E-10	324.566268	0.1000042	8.64849E-05	324.566268
-4.4005	-2.328E-10	324.590918	0.1000048	8.59955E-05	324.590918
-4.6005	-2.345E-10	324.615466	0.1000048	8.55024E-05	324.615466
-4.80048	-2.485E-10	324.639976	0.1000046	8.50092E-05	324.639976
-5.00047	-2.423E-10	324.66449	0.1000049	8.4515E-05	324.66449
-5.20047	-2.428E-10	324.68903	0.1000051	8.40173E-05	324.68903
-5.40049	-2.48E-10	324.713551	0.1000046	8.35204E-05	324.713551
-5.60049	-2.5E-10	324.738073	0.1000051	8.30216E-05	324.738073
-5.80048	-2.711E-10	324.762589	0.1000057	8.25211E-05	324.762589
-6.00048	-2.58E-10	324.78711	0.1000052	8.20171E-05	324.78711
-6.20049	-2.563E-10	324.81162	0.1000047	8.15115E-05	324.81162
-6.40049	-2.084E-10	324.871052	0.1000048	8.10082E-05	324.871052
-6.60049	-2.402E-10	324.895599	0.1000056	8.04999E-05	324.895599
-6.80049	-2.632E-10	324.920145	0.1000047	7.99884E-05	324.920145
-7.00048	-2.009E-10	324.944679	0.1000061	7.94767E-05	324.944679
-7.2005	-2.205E-10	324.969247	0.1000056	7.89621E-05	324.969247
-7.40049	-2.556E-10	324.993793	0.100006	7.84471E-05	324.993793
-7.60049	-2.695E-10	325.018331	0.1000054	7.79271E-05	325.018331
-7.80047	-2.819E-10	325.042855	0.1000056	7.74068E-05	325.042855
-8.00048	-2.641E-10	325.067358	0.1000065	7.68852E-05	325.067358
-8.20047	-2.708E-10	325.091878	0.1000063	7.6359E-05	325.091878
-8.4005	-2.943E-10	325.116395	0.1000063	7.58331E-05	325.116395
-8.60048	-3.861E-10	325.140905	0.1000063	7.53044E-05	325.140905
-8.80047	-3.003E-10	325.165423	0.1000058	7.47725E-05	325.165423
-9.00048	-3.025E-10	325.189922	0.1000063	7.42408E-05	325.189922
-9.20049	-3.096E-10	325.214521	0.1000066	7.37064E-05	325.214521
-9.40051	-3.09E-10	325.239038	0.1000058	7.31694E-05	325.239038
-9.60051	-3.054E-10	325.26362	0.1000061	7.26302E-05	325.26362
-9.80048	-3.245E-10	325.288126	0.1000067	7.20929E-05	325.288126
-10.00048	-3.136E-10	325.312752	0.1000049	7.15513E-05	325.312752
-10.20048	-2.693E-10	325.369696	0.1000059	7.1016E-05	325.369696
-10.40047	-2.877E-10	325.394304	0.1000055	7.04698E-05	325.394304
-10.6005	-3.017E-10	325.418836	0.1000067	6.99227E-05	325.418836
-10.80049	-3.173E-10	325.443361	0.1000052	6.9371E-05	325.443361
-11.00047	-3.168E-10	325.467947	0.1000057	6.8818E-05	325.467947
-11.20049	-3.152E-10	325.492485	0.1000057	6.82627E-05	325.492485
-11.40047	-3.264E-10	325.517029	0.1000063	6.77053E-05	325.517029
-11.60049	-3.404E-10	325.541555	0.1000069	6.71451E-05	325.541555
-11.80049	-3.318E-10	325.566081	0.1000068	6.65839E-05	325.566081
-12.00047	-3.159E-10	325.590654	0.1000064	6.602E-05	325.590654
