#scan	iMeasureCycle=1	iMux=0	time=0.039	N=222	LocalTime=22/06/2023 09:38:52
#VGate(V)	IGate(A)	time(s)	VDrain(V)	IDrain(A)	time(s)
-12.00048	-3.159E-09	0.064895	0.100007	7.00705E-05	0.064895
-11.80048	-3.0002E-09	0.089795	0.1000061	7.06226E-05	0.089795
-11.60049	-1.102E-09	0.114338	0.1000057	7.11749E-05	0.114338
-11.4005	-4.561E-10	0.138851	0.1000062	7.17232E-05	0.138851
-11.2005	-3.405E-10	0.163383	0.1000061	7.22686E-05	0.163383
-11.00048	-2.876E-10	0.187899	0.1000063	7.28123E-05	0.187899
-10.8005	-1.942E-10	0.212448	0.1000054	7.33538E-05	0.212448
-10.6005	-1.147E-10	0.236952	0.1000059	7.38921E-05	0.236952
-10.4005	-9.47E-11	0.261477	0.1000063	7.44277E-05	0.261477
-10.2005	-5.47E-11	0.285988	0.1000048	7.49595E-05	0.285988
-10.0005	-4.38E-11	0.310527	0.1000055	7.54933E-05	0.310527
-9.80049	-1.72E-11	0.33507	0.1000056	7.60226E-05	0.33507
-9.6005	1.93E-11	0.359591	0.1000056	7.65494E-05	0.359591
-9.4005	1.05E-11	0.384165	0.100005	7.70756E-05	0.384165
-9.2005	2.3E-12	0.408718	0.1000054	7.75998E-05	0.408718
-9.0005	4.82E-11	0.433236	0.1000053	7.81154E-05	0.433236
-8.80049	7.41E-11	0.457768	0.1000063	7.86324E-05	0.457768
-8.60049	5.33E-11	0.482282	0.100005	7.91431E-05	0.482282
-8.4005	6.37E-11	0.506889	0.1000058	7.9655E-05	0.506889
-8.2005	9.11E-11	0.531402	0.100005	8.01622E-05	0.531402
-8.00049	9.1E-11	0.555926	0.1000053	8.06673E-05	0.555926
-7.80048	9.82E-11	0.580439	0.1000053	8.1171E-05	0.580439
-7.60049	5.58E-11	0.628818	0.1000057	8.16701E-05	0.628818
-7.40048	9.38E-11	0.653414	0.1000053	8.21723E-05	0.653414
-7.2005	1.115E-10	0.677954	0.1000047	8.26705E-05	0.677954
-7.00048	1.358E-10	0.702466	0.1000049	8.31676E-05	0.702466
-6.80049	1.183E-10	0.727052	0.1000048	8.36652E-05	0.727052
-6.6005	1.233E-10	0.751562	0.1000045	8.41597E-05	0.751562
-6.40049	1.564E-10	0.776097	0.1000045	8.46528E-05	0.776097
-6.2005	1.535E-10	0.8007	0.1000047	8.51435E-05	0.8007
-6.0005	1.518E-10	0.825233	0.1000051	8.56345E-05	0.825233
-5.8005	1.492E-10	0.849764	0.1000051	8.61203E-05	0.849764
-5.6005	1.725E-10	0.874277	0.1000049	8.6609E-05	0.874277
-5.4005	1.966E-10	0.898801	0.1000044	8.70922E-05	0.898801
-5.20049	1.64E-10	0.923337	0.1000049	8.75764E-05	0.923337
-5.00051	1.754E-10	0.947852	0.1000047	8.8058E-05	0.947852
-4.80048	1.949E-10	0.972374	0.1000042	8.85376E-05	0.972374
-4.60049	1.993E-10	0.996983	0.1000039	8.9017E-05	0.996983
-4.4005	1.968E-10	1.021508	0.1000044	8.94957E-05	1.021508
-4.2005	2.173E-10	1.046039	0.1000047	8.99725E-05	1.046039
-4.00052	1.994E-10	1.070604	0.1000046	9.04491E-05	1.070604
-3.80049	1.495E-10	1.130142	0.1000038	9.09196E-05	1.130142
-3.60049	3.691E-10	1.154672	0.1000049	9.13948E-05	1.154672
-3.40049	2.353E-10	1.179192	0.1000049	9.18675E-05	1.179192
-3.2005	2.113E-10	1.203707	0.1000046	9.23395E-05	1.203707
-3.00049	2.28E-10	1.228259	0.1000047	9.28098E-05	1.228259
-2.80049	2.401E-10	1.25278	0.1000054	9.3279E-05	1.25278
-2.60049	2.454E-10	1.277308	0.1000045	9.37466E-05	1.277308
-2.40049	2.516E-10	1.301824	0.1000052	9.42143E-05	1.301824
-2.2005	2.48E-10	1.326351	0.1000051	9.46813E-05	1.326351
-2.00049	2.491E-10	1.350858	0.100005	9.51468E-05	1.350858
-1.80051	2.602E-10	1.375372	0.1000041	9.56147E-05	1.375372
-1.60048	2.785E-10	1.399955	0.1000044	9.60846E-05	1.399955
-1.40051	2.699E-10	1.424512	0.1000049	9.65585E-05	1.424512
-1.2005	2.504E-10	1.449034	0.1000051	9.70411E-05	1.449034
-1.00049	2.808E-10	1.473572	0.1000055	9.75324E-05	1.473572
-0.8005	3.066E-10	1.498179	0.1000044	9.8033E-05	1.498179
-0.6005	2.788E-10	1.522817	0.1000043	9.85424E-05	1.522817
-0.4005	2.649E-10	1.547332	0.1000048	9.90598E-05	1.547332
-0.2005	3.058E-10	1.571854	0.1000045	9.95812E-05	1.571854
-0.0005	8.82E-11	1.631818	0.100005	0.0001001012	1.631818
0.19949	2.599E-10	1.656334	0.1000033	0.0001006303	1.656334
0.3995	2.821E-10	1.680864	0.1000034	0.0001011622	1.680864
0.5995	2.859E-10	1.705385	0.1000041	0.0001016973	1.705385
0.79948	2.836E-10	1.729959	0.1000039	0.0001022317	1.729959
0.99949	3.042E-10	1.754478	0.1000039	0.0001027664	1.754478
1.1995	3.254E-10	1.779075	0.1000041	0.0001033048	1.779075
1.3995	3.044E-10	1.803595	0.1000039	0.0001038435	1.803595
1.5995	2.954E-10	1.82814	0.1000044	0.0001043849	1.82814
1.79949	3.112E-10	1.857718	0.1	0.000105006	1.857718
1.99948	2.314E-10	1.882264	0.1	0.000105549	1.882264
2.19953	3.282E-10	1.906788	0.1	0.000106092	1.906788
2.39956	3.276E-10	1.931325	0.1	0.000106639	1.931325
2.59955	3.361E-10	1.955839	0.1000001	0.000107184	1.955839
2.79953	3.45E-10	1.980344	0.0999998	0.00010773	1.980344
2.99954	3.403E-10	2.004942	0.1	0.000108275	2.004942
3.19953	4.285E-10	2.029468	0.1000001	0.000108822	2.029468
3.3995	3.413E-10	2.054	0.0999998	0.000109368	2.054
3.59949	3.789E-10	2.078517	0.1	0.000109914	2.078517
3.7995	2.968E-10	2.136242	0.0999999	0.000110453	2.136242
3.99948	3.6E-10	2.160772	0.1000001	0.000110998	2.160772
4.19948	3.501E-10	2.185279	0.1	0.000111542	2.185279
4.39949	3.397E-10	2.209797	0.1000002	0.000112083	2.209797
4.59949	3.636E-10	2.234373	0.0999999	0.000112622	2.234373
4.79949	3.946E-10	2.258889	0.0999999	0.000113159	2.258889
4.9995	3.609E-10	2.283415	0.0999999	0.000113693	2.283415
5.19949	3.473E-10	2.307932	0.1000001	0.000114227	2.307932
5.39949	3.807E-10	2.332464	0.0999999	0.000114756	2.332464
5.5995	4.031E-10	2.356987	0.1	0.000115284	2.356987
5.79949	3.805E-10	2.3816	0.0999999	0.000115809	2.3816
5.99949	3.779E-10	2.406175	0.0999999	0.000116331	2.406175
6.1995	4.014E-10	2.430732	0.1000002	0.00011685	2.430732
6.39949	3.986E-10	2.45525	0.1000002	0.000117364	2.45525
6.59949	3.92E-10	2.479782	0.1000002	0.000117877	2.479782
6.7995	4.142E-10	2.504391	0.1000003	0.000118385	2.504391
6.99948	3.911E-10	2.528918	0.1	0.00011889	2.528918
7.19949	5.021E-10	2.553433	0.1000001	0.000119396	2.553433
7.39949	4.739E-10	2.577949	0.0999999	0.000119897	2.577949
7.59949	3.727E-10	2.63496	0.0999999	0.000120393	2.63496
7.7995	4.056E-10	2.659556	0.1	0.000120888	2.659556
7.99948	4.152E-10	2.684097	0.0999999	0.000121381	2.684097
8.19949	2.893E-10	2.708593	0.1	0.000121871	2.708593
8.39949	3.941E-10	2.733261	0.1000001	0.000122358	2.733261
8.5995	4.45E-10	2.757779	0.0999999	0.000122842	2.757779
8.79951	4.17E-10	2.782292	0.0999999	0.000123327	2.782292
8.99948	3.968E-10	2.806811	0.0999999	0.000123806	2.806811
9.1995	4.301E-10	2.831332	0.1000001	0.00012428	2.831332
9.39949	4.5E-10	2.855836	0.0999999	0.000124761	2.855836
9.5995	4.271E-10	2.880329	0.1000002	0.000125238	2.880329
9.79949	4.227E-10	2.904838	0.0999999	0.000125709	2.904838
9.99947	4.377E-10	2.929372	0.0999997	0.00012618	2.929372
9.99949	3.888E-10	2.952731	0.1	0.000126181	2.952731
9.79951	3.112E-10	2.977339	0.0999998	0.000125712	2.977339
9.59949	2.664E-10	3.001936	0.0999998	0.000125242	3.001936
9.39951	2.24E-10	3.026466	0.1000002	0.000124768	3.026466
9.19949	2.042E-10	3.050988	0.0999997	0.000124291	3.050988
8.9995	1.893E-10	3.075563	0.1	0.000123814	3.075563
8.7995	2.263E-10	3.136677	0.1000001	0.000123329	3.136677
8.5995	1.609E-10	3.161199	0.0999998	0.000122836	3.161199
8.3995	1.203E-10	3.185711	0.1	0.000122345	3.185711
8.19949	1.288E-10	3.210213	0.0999999	0.00012185	3.210213
7.99949	1.164E-10	3.234773	0.1000001	0.00012135	3.234773
7.79951	8.72E-11	3.259286	0.0999999	0.000120848	3.259286
7.5995	8.67E-11	3.283811	0.0999999	0.000120344	3.283811
7.39949	6.58E-11	3.308321	0.1	0.000119837	3.308321
7.1995	5.79E-11	3.332846	0.0999996	0.000119329	3.332846
6.99949	6.07E-11	3.357364	0.1000001	0.000118818	3.357364
6.79951	4.79E-11	3.381879	0.0999999	0.000118305	3.381879
6.59951	1.42E-11	3.406465	0.0999999	0.000117789	3.406465
6.39949	2.78E-11	3.431013	0.0999999	0.000117271	3.431013
6.1995	2.33E-11	3.455538	0.0999999	0.000116749	3.455538
5.99949	1.35E-11	3.480046	0.1000002	0.000116224	3.480046
5.79951	-6.4E-12	3.504663	0.1	0.000115695	3.504663
5.59951	-2.56E-11	3.529187	0.0999999	0.000115167	3.529187
5.3995	6.6E-12	3.553718	0.0999999	0.000114637	3.553718
5.19951	-4.8E-12	3.578229	0.1000001	0.0001141	3.578229
4.9995	2.43E-11	3.638237	0.0999998	0.000113565	3.638237
4.7995	-1.46E-11	3.662765	0.1000002	0.000113026	3.662765
4.5995	-3.63E-11	3.687286	0.1	0.000112485	3.687286
4.3995	-4.68E-11	3.711823	0.1000001	0.000111939	3.711823
4.1995	-3.85E-11	3.736383	0.1	0.000111396	3.736383
3.99949	-3.79E-11	3.760919	0.0999999	0.000110849	3.760919
3.7995	-7.23E-11	3.785435	0.0999999	0.000110301	3.785435
3.59951	-8.09E-11	3.80997	0.0999997	0.000109753	3.80997
3.3995	-6.57E-11	3.834425	0.0999999	0.000109202	3.834425
3.1995	-7.93E-11	3.858962	0.1000002	0.000108653	3.858962
2.99949	-8.98E-11	3.883467	0.0999997	0.000108105	3.883467
2.7995	-1.081E-10	3.907997	0.1000002	0.000107554	3.907997
2.59951	-1.014E-10	3.93249	0.1	0.000107005	3.93249
2.39951	-8.28E-11	3.957041	0.1	0.000106457	3.957041
2.19952	-1.364E-10	3.981556	0.1000002	0.000105911	3.981556
1.9995	-1.25E-10	4.006178	0.1	0.000105364	4.006178
1.79951	-1.215E-10	4.030689	0.0999998	0.000104819	4.030689
1.59951	-1.349E-10	4.055222	0.0999999	0.000104277	4.055222
1.39951	-1.165E-10	4.079797	0.0999997	0.000103734	4.079797
1.1995	-8.16E-11	4.139856	0.0999999	0.000103197	4.139856
0.9995	-1.296E-10	4.164407	0.1000001	0.000102657	4.164407
0.79949	-1.447E-10	4.188926	0.1000001	0.000102123	4.188926
0.59951	-1.203E-10	4.213452	0.1	0.000101586	4.213452
0.39952	-1.265E-10	4.238113	0.0999997	0.000101049	4.238113
0.19951	-1.693E-10	4.262662	0.0999999	0.000100516	4.262662
-0.00048	-1.623E-10	4.287176	0.1	9.9986E-05	4.287176
-0.2005	-1.562E-10	4.311703	0.0999997	9.946E-05	4.311703
-0.40049	-1.602E-10	4.336211	0.1	9.8938E-05	4.336211
-0.60048	-1.685E-10	4.360762	0.1000002	9.8424E-05	4.360762
-0.8005	-1.826E-10	4.385269	0.0999999	9.7921E-05	4.385269
-1.00049	-1.818E-10	4.409845	0.1	9.7423E-05	4.409845
-1.20048	-1.934E-10	4.434397	0.1	9.694E-05	4.434397
-1.40049	-1.811E-10	4.458934	0.1000001	9.6464E-05	4.458934
-1.60049	-1.948E-10	4.483453	0.0999997	9.5992E-05	4.483453
-1.8005	-2.249E-10	4.508076	0.0999999	9.5525E-05	4.508076
-2.00049	-2.067E-10	4.532617	0.0999999	9.5061E-05	4.532617
-2.20049	-1.726E-10	4.557143	0.0999999	9.4595E-05	4.557143
-2.40049	-2.199E-10	4.581673	0.0999999	9.4128E-05	4.581673
-2.60049	-1.689E-10	4.641506	0.1	9.3664E-05	4.641506
-2.8005	-2.015E-10	4.666128	0.1000001	9.3195E-05	4.666128
-3.00049	-2.055E-10	4.690648	0.1	9.2726E-05	4.690648
-3.2005	-2.145E-10	4.71516	0.0999998	9.2257E-05	4.71516
-3.4005	-2.128E-10	4.739728	0.0999998	9.1785E-05	4.739728
-3.60049	-2.268E-10	4.764272	0.1	9.1315E-05	4.764272
-3.80051	-2.445E-10	4.788795	0.0999999	9.0842E-05	4.788795
-4.0005	-2.251E-10	4.813307	0.1	9.0369E-05	4.813307
-4.2005	-2.216E-10	4.837817	0.0999998	8.9894E-05	4.837817
-4.40049	-2.507E-10	4.862359	0.0999999	8.9417E-05	4.862359
-4.60047	-2.693E-10	4.886879	0.0999999	8.8939E-05	4.886879
-4.80048	-2.347E-10	4.911396	0.0999999	8.8459E-05	4.911396
-5.00049	-2.302E-10	4.939264	0.1000047	8.78937E-05	4.939264
-5.20049	-2.557E-10	4.963799	0.1000045	8.74133E-05	4.963799
-5.40049	-2.751E-10	4.988345	0.1000041	8.69299E-05	4.988345
-5.60049	-2.59E-10	5.012941	0.1000043	8.64433E-05	5.012941
-5.80049	-2.377E-10	5.037449	0.1000044	8.59569E-05	5.037449
-6.00049	-2.754E-10	5.061979	0.1000048	8.54678E-05	5.061979
-6.20048	-2.957E-10	5.086499	0.1000051	8.49771E-05	5.086499
-6.40048	-2.187E-10	5.145838	0.1000056	8.4488E-05	5.145838
-6.60049	-2.517E-10	5.17039	0.1000049	8.3991E-05	5.17039
-6.80048	-2.7E-10	5.194902	0.1000045	8.34959E-05	5.194902
-7.00048	-2.48E-10	5.219498	0.1000055	8.29981E-05	5.219498
-7.20048	-2.737E-10	5.244065	0.1000048	8.24981E-05	5.244065
-7.4005	-2.937E-10	5.268599	0.1000052	8.19961E-05	5.268599
-7.60049	-2.835E-10	5.293111	0.1000043	8.14917E-05	5.293111
-7.80047	-2.571E-10	5.317627	0.1000058	8.09869E-05	5.317627
-8.00049	-2.894E-10	5.342354	0.1000052	8.04783E-05	5.342354
-8.20048	-3.109E-10	5.366891	0.1000051	7.99689E-05	5.366891
-8.40049	-1.761E-10	5.391405	0.1000058	7.94572E-05	5.391405
-8.60048	-2.706E-10	5.415989	0.1000055	7.89431E-05	5.415989
-8.80048	-2.973E-10	5.440548	0.1000058	7.84268E-05	5.440548
-9.00048	-3.142E-10	5.465161	0.1000056	7.79087E-05	5.465161
-9.2005	-2.885E-10	5.489694	0.100005	7.73885E-05	5.489694
-9.40048	-2.975E-10	5.514294	0.1000058	7.68649E-05	5.514294
-9.60048	-3.145E-10	5.538836	0.1000057	7.63413E-05	5.538836
-9.80047	-3.065E-10	5.56337	0.1000065	7.58184E-05	5.56337
-10.00047	-3.268E-10	5.58791	0.1000057	7.52909E-05	5.58791
-10.20048	-2.892E-10	5.64471	0.1000058	7.47686E-05	5.64471
-10.40047	-3.048E-10	5.669237	0.1000061	7.42379E-05	5.669237
-10.60048	-3.127E-10	5.693755	0.1000049	7.37044E-05	5.693755
-10.80047	-3.189E-10	5.718277	0.1000057	7.31684E-05	5.718277
-11.00047	-3.187E-10	5.742828	0.1000061	7.26304E-05	5.742828
-11.20049	-3.387E-10	5.767374	0.1000061	7.20902E-05	5.767374
-11.40049	-3.405E-10	5.79189	0.1000064	7.15471E-05	5.79189
-11.6005	-3.017E-10	5.816399	0.1000059	7.1E-05	5.816399
-11.80049	-3.378E-10	5.840904	0.1000067	7.04529E-05	5.840904
-12.00049	-3.682E-10	5.865408	0.1000061	6.99023E-05	5.865408
#scan	iMeasureCycle=2	iMux=0	time=279.617	N=222	LocalTime=22/06/2023 09:43:31
#VGate(V)	IGate(A)	time(s)	VDrain(V)	IDrain(A)	time(s)
-12.00048	-5.97E-11	279.624547	0.1000063	6.99325E-05	279.624547
-11.80048	-6.5E-12	279.649437	0.1000055	7.04846E-05	279.649437
-11.6005	7.2E-12	279.67508	0.1000065	7.10356E-05	279.67508
-11.40048	3.83E-11	279.699595	0.1000064	7.15833E-05	279.699595
-11.20049	5.26E-11	279.724192	0.1000059	7.21291E-05	279.724192
-11.00047	-7.77E-11	279.748752	0.1000062	7.26719E-05	279.748752
-10.80049	5.56E-11	279.773292	0.100006	7.32135E-05	279.773292
-10.60049	8.77E-11	279.797805	0.1000063	7.37523E-05	279.797805
-10.40049	7.8E-11	279.822328	0.1000053	7.42872E-05	279.822328
-10.20049	7.39E-11	279.846872	0.1000051	7.48218E-05	279.846872
-10.0005	9.31E-11	279.871473	0.1000063	7.53548E-05	279.871473
-9.80048	1.407E-10	279.896008	0.1000056	7.58848E-05	279.896008
-9.6005	1.107E-10	279.920522	0.1000049	7.64116E-05	279.920522
-9.40048	1.011E-10	279.945148	0.100006	7.69396E-05	279.945148
-9.20049	1.381E-10	279.969664	0.1000048	7.74638E-05	279.969664
-9.00049	1.45E-10	279.994195	0.1000056	7.7982E-05	279.994195
-8.8005	1.333E-10	280.018706	0.1000042	7.84969E-05	280.018706
-8.6005	1.403E-10	280.043251	0.1000057	7.90103E-05	280.043251
-8.4005	1.462E-10	280.067774	0.1000059	7.95218E-05	280.067774
-8.20049	1.63E-10	280.092353	0.1000052	8.0029E-05	280.092353
-8.0005	1.626E-10	280.116863	0.1000045	8.05362E-05	280.116863
-7.80048	1.63E-10	280.141394	0.1000048	8.10407E-05	280.141394
-7.6005	1.157E-10	280.187931	0.1000046	8.15421E-05	280.187931
-7.40049	1.614E-10	280.212473	0.1000047	8.20449E-05	280.212473
-7.20049	1.885E-10	280.236998	0.1000055	8.25449E-05	280.236998
-7.00049	1.591E-10	280.261521	0.1000056	8.30439E-05	280.261521
-6.80048	1.676E-10	280.286065	0.1000052	8.35412E-05	280.286065
-6.6005	1.873E-10	280.3106	0.100005	8.40368E-05	280.3106
-6.4005	1.83E-10	280.335126	0.1000051	8.45311E-05	280.335126
-6.20051	1.937E-10	280.359742	0.1000036	8.50212E-05	280.359742
-6.0005	1.984E-10	280.384253	0.1000048	8.55127E-05	280.384253
-5.80049	1.924E-10	280.408782	0.1000047	8.60011E-05	280.408782
-5.6005	2.015E-10	280.43335	0.1000046	8.64888E-05	280.43335
-5.4005	2.265E-10	280.457872	0.1000045	8.69748E-05	280.457872
-5.20049	2.051E-10	280.482392	0.1000046	8.74572E-05	280.482392
-5.0005	2.053E-10	280.506924	0.1000047	8.794E-05	280.506924
-4.80049	2.266E-10	280.531441	0.100004	8.84206E-05	280.531441
-4.60049	2.507E-10	280.555965	0.1000049	8.89005E-05	280.555965
-4.4005	2.237E-10	280.580469	0.1000048	8.93775E-05	280.580469
-4.20049	2.097E-10	280.60499	0.1000047	8.98558E-05	280.60499
-4.0005	2.463E-10	280.629516	0.1000045	9.0331E-05	280.629516
-3.80051	1.843E-10	280.689499	0.1000047	9.08029E-05	280.689499
-3.60049	2.118E-10	280.714042	0.1000041	9.12768E-05	280.714042
-3.4005	2.273E-10	280.738651	0.1000043	9.17492E-05	280.738651
-3.20051	2.377E-10	280.763246	0.1000044	9.22222E-05	280.763246
-3.0005	2.206E-10	280.787851	0.1000043	9.2693E-05	280.787851
-2.8005	2.413E-10	280.812374	0.1000043	9.31611E-05	280.812374
-2.6005	2.768E-10	280.836925	0.1000034	9.36293E-05	280.836925
-2.4005	2.438E-10	280.861531	0.100004	9.4098E-05	280.861531
-2.2005	2.338E-10	280.886065	0.100004	9.45642E-05	280.886065
-2.00051	2.671E-10	280.910577	0.1000047	9.50321E-05	280.910577
-1.8005	2.74E-10	280.935113	0.1000039	9.55003E-05	280.935113
-1.60048	3.797E-10	280.959625	0.1000051	9.59706E-05	280.959625
-1.4005	2.769E-10	280.984162	0.100004	9.64442E-05	280.984162
-1.20051	2.839E-10	281.008684	0.1000045	9.69269E-05	281.008684
-1.0005	2.927E-10	281.033234	0.1000047	9.74185E-05	281.033234
-0.80051	2.841E-10	281.05776	0.1000042	9.79188E-05	281.05776
-0.6005	2.886E-10	281.082374	0.1000048	9.8428E-05	281.082374
-0.4005	2.813E-10	281.106905	0.1000038	9.89454E-05	281.106905
-0.2005	2.874E-10	281.131442	0.1000042	9.94685E-05	281.131442
-0.00051	2.375E-10	281.19095	0.1000041	9.99887E-05	281.19095
0.19951	2.754E-10	281.215476	0.1000034	0.0001005188	281.215476
0.3995	2.682E-10	281.240004	0.1000044	0.0001010534	281.240004
0.5995	2.691E-10	281.264532	0.1000036	0.0001015873	281.264532
0.79948	2.997E-10	281.28909	0.1000033	0.0001021214	281.28909
0.99948	3.015E-10	281.313628	0.100004	0.0001026574	281.313628
1.19949	2.863E-10	281.338157	0.1000042	0.0001031956	281.338157
1.39951	3.164E-10	281.362783	0.1000039	0.0001037349	281.362783
1.5995	3.003E-10	281.387309	0.1000036	0.0001042769	281.387309
1.7995	3.063E-10	281.416958	0.0999999	0.000104897	281.416958
1.9995	3.067E-10	281.441497	0.0999999	0.000105439	281.441497
2.1995	2.919E-10	281.466101	0.0999999	0.000105985	281.466101
2.3995	3.285E-10	281.490631	0.1000001	0.00010653	281.490631
2.59949	3.48E-10	281.51513	0.1	0.000107075	281.51513
2.79949	3.199E-10	281.539661	0.0999999	0.000107622	281.539661
2.99949	3.238E-10	281.564179	0.1000001	0.000108169	281.564179
3.19948	3.365E-10	281.58869	0.1000002	0.000108715	281.58869
3.39949	3.367E-10	281.613202	0.1000001	0.000109263	281.613202
3.59951	3.406E-10	281.637731	0.1	0.000109809	281.637731
3.79949	3.095E-10	281.69545	0.1000001	0.00011035	281.69545
3.99949	3.203E-10	281.719991	0.1000001	0.000110897	281.719991
4.19949	3.226E-10	281.744523	0.0999998	0.00011144	281.744523
4.39948	3.504E-10	281.769111	0.1000001	0.000111981	281.769111
4.5995	3.455E-10	281.793687	0.0999999	0.000112523	281.793687
4.79949	3.418E-10	281.818225	0.1	0.000113062	281.818225
4.99949	3.561E-10	281.842742	0.1000002	0.000113598	281.842742
5.19949	3.45E-10	281.867342	0.1000001	0.000114134	281.867342
5.39949	3.61E-10	281.891857	0.1000001	0.000114664	281.891857
5.59949	3.684E-10	281.916367	0.0999998	0.00011519	281.916367
5.79949	3.687E-10	281.940961	0.0999999	0.000115716	281.940961
5.99948	3.553E-10	281.965475	0.0999999	0.000116238	281.965475
6.19948	3.638E-10	281.989976	0.0999999	0.000116757	281.989976
6.39949	3.904E-10	282.014483	0.1	0.000117276	282.014483
6.59949	3.832E-10	282.039095	0.0999999	0.000117788	282.039095
6.79951	3.661E-10	282.063608	0.0999999	0.000118299	282.063608
6.99948	3.836E-10	282.088162	0.1000001	0.000118807	282.088162
7.1995	4.024E-10	282.11268	0.1	0.000119314	282.11268
7.39949	3.938E-10	282.137222	0.1	0.000119816	282.137222
7.5995	3.365E-10	282.190002	0.1000002	0.000120312	282.190002
7.79949	3.851E-10	282.214535	0.1	0.00012081	282.214535
7.99948	3.908E-10	282.239024	0.1	0.000121304	282.239024
8.19949	3.747E-10	282.263562	0.1000001	0.000121794	282.263562
8.39949	3.904E-10	282.288131	0.1	0.00012228	282.288131
8.5995	4.019E-10	282.312675	0.0999998	0.000122768	282.312675
8.7995	4.023E-10	282.337175	0.0999998	0.000123252	282.337175
8.99949	4.974E-10	282.361789	0.0999999	0.000123729	282.361789
9.19949	4.08E-10	282.386298	0.0999999	0.000124208	282.386298
9.39949	4.219E-10	282.41081	0.1	0.000124689	282.41081
9.59949	4.337E-10	282.435394	0.1000002	0.000125166	282.435394
9.79951	4.068E-10	282.459934	0.1000001	0.000125637	282.459934
9.99948	4.282E-10	282.484441	0.0999998	0.00012611	282.484441
9.99948	3.567E-10	282.507799	0.0999998	0.000126112	282.507799
9.79951	2.788E-10	282.532295	0.1	0.000125642	282.532295
9.5995	1.39E-11	282.556824	0.0999999	0.000125174	282.556824
9.3995	1.9E-10	282.581327	0.1000001	0.000124698	282.581327
9.1995	1.606E-10	282.605856	0.1000001	0.000124218	282.605856
8.9995	1.747E-10	282.630363	0.1	0.000123739	282.630363
8.79951	1.632E-10	282.654912	0.1	0.000123255	282.654912
8.5995	1.766E-10	282.692175	0.1000001	0.000122765	282.692175
8.39951	1.34E-10	282.716698	0.1000001	0.000122272	282.716698
8.19949	8.8E-11	282.741204	0.1	0.000121775	282.741204
7.99949	8.83E-11	282.765769	0.0999999	0.000121274	282.765769
7.79951	8.22E-11	282.790346	0.1	0.000120771	282.790346
7.5995	8.08E-11	282.81488	0.1	0.000120268	282.81488
7.3995	5.62E-11	282.839392	0.1	0.000119762	282.839392
7.1995	4.59E-11	282.863997	0.0999999	0.000119252	282.863997
6.99948	3.71E-11	282.888522	0.0999998	0.00011874	282.888522
6.79951	2.85E-11	282.913053	0.1000001	0.000118228	282.913053
6.5995	3.02E-11	282.937562	0.1000002	0.000117713	282.937562
6.3995	1.77E-11	282.962095	0.0999998	0.000117191	282.962095
6.1995	-1.4E-12	282.986612	0.1	0.000116669	282.986612
5.99949	1.04E-11	283.011135	0.1000001	0.000116143	283.011135
5.79951	1.36E-11	283.035643	0.1000001	0.000115615	283.035643
5.5995	-1.9E-11	283.060257	0.1	0.000115087	283.060257
5.39951	-3.71E-11	283.084772	0.1	0.000114554	283.084772
5.1995	-2.2E-11	283.10937	0.0999998	0.000114019	283.10937
4.99949	-3.14E-11	283.133882	0.0999999	0.000113483	283.133882
4.7995	2.3E-11	283.195669	0.0999999	0.000112944	283.195669
4.59951	-2.72E-11	283.220222	0.1000002	0.000112399	283.220222
4.39949	-3.48E-11	283.244742	0.1000002	0.000111856	283.244742
4.19949	-5.22E-11	283.269263	0.0999999	0.000111309	283.269263
3.99949	-4.8E-11	283.293832	0.0999999	0.000110762	283.293832
3.79951	-5.8E-11	283.31835	0.1000001	0.000110214	283.31835
3.59951	-6.09E-11	283.342867	0.1000001	0.000109666	283.342867
3.39949	-8.08E-11	283.36757	0.0999998	0.000109116	283.36757
3.19951	-8.6E-11	283.392079	0.0999999	0.000108566	283.392079
2.9995	-6.47E-11	283.416608	0.0999999	0.000108015	283.416608
2.79949	-9.83E-11	283.441188	0.0999999	0.000107466	283.441188
2.59951	-1.269E-10	283.465726	0.0999998	0.000106917	283.465726
2.39949	-9.19E-11	283.490242	0.0999998	0.000106368	283.490242
2.1995	-8.56E-11	283.514816	0.1000001	0.00010582	283.514816
1.99951	-1.256E-10	283.539331	0.0999999	0.000105272	283.539331
1.7995	-1.353E-10	283.563856	0.0999998	0.000104725	283.563856
1.59951	-1.137E-10	283.588369	0.0999999	0.000104181	283.588369
1.39951	-1.219E-10	283.612907	0.0999999	0.000103639	283.612907
1.1995	-1.379E-10	283.637433	0.0999999	0.000103099	283.637433
0.99951	-6.02E-11	283.694142	0.0999997	0.000102563	283.694142
0.7995	-1.297E-10	283.718696	0.0999999	0.000102024	283.718696
0.59953	-1.212E-10	283.743215	0.1000001	0.000101488	283.743215
0.39951	-2.7E-12	283.767784	0.0999997	0.000100952	283.767784
0.19951	-1.314E-10	283.79236	0.1000001	0.000100421	283.79236
-0.00048	-1.354E-10	283.816885	0.1000002	9.989E-05	283.816885
-0.2005	-1.478E-10	283.841381	0.0999999	9.9364E-05	283.841381
-0.4005	-1.734E-10	283.866	0.0999998	9.8843E-05	283.866
-0.60049	-1.605E-10	283.890526	0.1	9.8328E-05	283.890526
-0.8005	-1.448E-10	283.915051	0.1000002	9.7823E-05	283.915051
-1.0005	-1.702E-10	283.939668	0.0999999	9.7328E-05	283.939668
-1.20049	-3.11E-10	283.964207	0.0999999	9.6843E-05	283.964207
-1.40049	-2.006E-10	283.988726	0.1	9.6366E-05	283.988726
-1.60049	-1.756E-10	284.013264	0.0999999	9.5894E-05	284.013264
-1.80049	-1.964E-10	284.037793	0.1000001	9.5426E-05	284.037793
-2.0005	-2.166E-10	284.062327	0.1000001	9.496E-05	284.062327
-2.20049	-2.035E-10	284.086842	0.1000001	9.4494E-05	284.086842
-2.4005	-2.031E-10	284.111421	0.1000001	9.4027E-05	284.111421
-2.60049	-2.133E-10	284.135953	0.0999999	9.3563E-05	284.135953
-2.80049	-2.209E-10	284.16066	0.1000001	9.3091E-05	284.16066
-3.0005	-1.757E-10	284.202522	0.1	9.2625E-05	284.202522
-3.20051	-2.153E-10	284.227047	0.0999998	9.2155E-05	284.227047
-3.40049	-2.222E-10	284.25162	0.1	9.1684E-05	284.25162
-3.60048	-1.899E-10	284.276149	0.0999999	9.1213E-05	284.276149
-3.80048	-2.333E-10	284.300737	0.1	9.0738E-05	284.300737
-4.00049	-2.553E-10	284.325254	0.1	9.0263E-05	284.325254
-4.20049	-2.178E-10	284.349769	0.1	8.9787E-05	284.349769
-4.40049	-2.139E-10	284.37438	0.0999997	8.9309E-05	284.37438
-4.60048	-2.505E-10	284.398896	0.1000003	8.883E-05	284.398896
-4.80049	-2.316E-10	284.426801	0.100004	8.82705E-05	284.426801
-5.00049	-2.54E-10	284.451318	0.1000041	8.77901E-05	284.451318
-5.20049	-2.225E-10	284.475908	0.100005	8.73085E-05	284.475908
-5.4005	-2.468E-10	284.500424	0.1000048	8.68233E-05	284.500424
-5.60049	-2.786E-10	284.524931	0.100004	8.63377E-05	284.524931
-5.80048	-2.474E-10	284.549447	0.1000052	8.58495E-05	284.549447
-6.00049	-2.418E-10	284.57396	0.1000046	8.53611E-05	284.57396
-6.20049	-2.711E-10	284.598488	0.1000055	8.48702E-05	284.598488
-6.40048	-2.718E-10	284.623015	0.1000047	8.43771E-05	284.623015
-6.60051	-2.677E-10	284.647536	0.100004	8.3882E-05	284.647536
-6.80047	-1.933E-10	284.711456	0.1000046	8.33877E-05	284.711456
-7.00049	-2.296E-10	284.736043	0.1000044	8.28903E-05	284.736043
-7.20049	-2.602E-10	284.760815	0.1000049	8.23892E-05	284.760815
-7.40048	-2.776E-10	284.785356	0.1000048	8.18873E-05	284.785356
-7.60049	-2.617E-10	284.812065	0.1000053	8.13834E-05	284.812065
-7.80048	-2.57E-10	284.836586	0.1000048	8.08762E-05	284.836586
-8.00049	-2.898E-10	284.861111	0.1000048	8.0369E-05	284.861111
-8.20047	-2.976E-10	284.88571	0.1000053	7.98588E-05	284.88571
-8.40048	-2.725E-10	284.91023	0.1000047	7.93462E-05	284.91023
-8.60048	-2.734E-10	284.934747	0.100005	7.88329E-05	284.934747
-8.80049	-2.996E-10	284.959268	0.1000048	7.83157E-05	284.959268
-9.00049	-3.058E-10	284.983792	0.1000051	7.77974E-05	284.983792
-9.20048	-2.864E-10	285.008325	0.1000057	7.72777E-05	285.008325
-9.40048	-3.02E-10	285.03284	0.1000045	7.67533E-05	285.03284
-9.60049	-3.164E-10	285.057369	0.1000044	7.62302E-05	285.057369
-9.80048	-3.008E-10	285.08189	0.1000058	7.57067E-05	285.08189
-10.00048	-3.132E-10	285.106491	0.1000048	7.51798E-05	285.106491
-10.20049	-3.235E-10	285.13101	0.1000052	7.46513E-05	285.13101
-10.40047	-2.982E-10	285.155551	0.1000055	7.41213E-05	285.155551
-10.60048	-2.559E-10	285.205842	0.1000064	7.35937E-05	285.205842
-10.80048	-2.965E-10	285.230363	0.1000062	7.3057E-05	285.230363
-11.00048	-2.908E-10	285.254877	0.1000061	7.25179E-05	285.254877
-11.20047	-3.014E-10	285.279407	0.1000066	7.19775E-05	285.279407
-11.4005	-3.323E-10	285.30398	0.1000064	7.14337E-05	285.30398
-11.60049	-3.229E-10	285.328505	0.1000047	7.08868E-05	285.328505
-11.80049	-3.051E-10	285.353032	0.1000054	7.03385E-05	285.353032
-12.00048	-3.237E-10	285.377639	0.1000067	6.97893E-05	285.377639
#scan	iMeasureCycle=3	iMux=0	time=319.678	N=222	LocalTime=22/06/2023 09:44:11
#VGate(V)	IGate(A)	time(s)	VDrain(V)	IDrain(A)	time(s)
-12.00048	-7.15E-11	319.685567	0.1000049	6.99046E-05	319.685567
-11.80049	-3.09E-11	319.710536	0.1000058	7.0458E-05	319.710536
-11.6005	-9.7E-12	319.736128	0.1000044	7.10073E-05	319.736128
-11.40049	2.36E-11	319.76067	0.1000051	7.15556E-05	319.76067
-11.2005	5.12E-11	319.785196	0.1000056	7.21028E-05	319.785196
-11.00049	4.09E-11	319.809726	0.1000057	7.26457E-05	319.809726
-10.80049	5.97E-11	319.83426	0.1000048	7.31861E-05	319.83426
-10.6005	7.84E-11	319.858845	0.1000056	7.37259E-05	319.858845
-10.40048	7.87E-11	319.883389	0.100005	7.42621E-05	319.883389
-10.20048	8.47E-11	319.907981	0.1000056	7.47965E-05	319.907981
-10.00049	1.001E-10	319.93259	0.1000052	7.53298E-05	319.93259
-9.80048	9.22E-11	319.957202	0.1000048	7.58596E-05	319.957202
-9.6005	1.084E-10	319.98174	0.100005	7.63874E-05	319.98174
-9.40049	1.212E-10	320.006257	0.1000056	7.69136E-05	320.006257
-9.20049	1.124E-10	320.030846	0.1000051	7.74376E-05	320.030846
-9.00049	1.208E-10	320.055365	0.1000049	7.79555E-05	320.055365
-8.80049	1.328E-10	320.079885	0.1000051	7.84723E-05	320.079885
-8.6005	1.393E-10	320.104503	0.100005	7.89862E-05	320.104503
-8.40049	1.441E-10	320.129021	0.1000046	7.94955E-05	320.129021
-8.20049	1.275E-10	320.153567	0.1000056	8.00061E-05	320.153567
-8.0005	1.725E-10	320.178134	0.100006	8.05117E-05	320.178134
-7.80048	1.635E-10	320.202681	0.1000046	8.10161E-05	320.202681
-7.60051	1.252E-10	320.248525	0.1000049	8.1518E-05	320.248525
-7.40049	1.356E-10	320.273061	0.1000052	8.20216E-05	320.273061
-7.2005	1.573E-10	320.297582	0.1000054	8.25214E-05	320.297582
-7.00049	1.817E-10	320.322128	0.1000048	8.30195E-05	320.322128
-6.80048	1.701E-10	320.346689	0.1000049	8.35175E-05	320.346689
-6.6005	1.622E-10	320.371211	0.1000045	8.40115E-05	320.371211
-6.40049	1.893E-10	320.395715	0.1000044	8.45066E-05	320.395715
-6.20049	3.26E-10	320.420406	0.1000041	8.4998E-05	320.420406
-6.00049	2.258E-10	320.444953	0.1000049	8.54882E-05	320.444953
-5.80049	1.992E-10	320.46947	0.1000051	8.59785E-05	320.46947
-5.60049	2.027E-10	320.494004	0.1000045	8.64634E-05	320.494004
-5.4005	2.147E-10	320.518565	0.1000043	8.695E-05	320.518565
-5.20048	2.149E-10	320.543177	0.1000052	8.74334E-05	320.543177
-5.0005	2.183E-10	320.567687	0.1000048	8.79148E-05	320.567687
-4.80049	2.207E-10	320.592207	0.1000048	8.83975E-05	320.592207
-4.60048	2.208E-10	320.616718	0.1000038	8.88749E-05	320.616718
-4.4005	2.36E-10	320.641239	0.1000048	8.93537E-05	320.641239
-4.20049	2.379E-10	320.665763	0.1000047	8.98295E-05	320.665763
-4.00049	2.279E-10	320.69031	0.1000049	9.03067E-05	320.69031
-3.80049	1.814E-10	320.750143	0.1000049	9.07785E-05	320.750143
-3.60049	2.165E-10	320.774669	0.1000047	9.12519E-05	320.774669
-3.4005	7.05E-11	320.799194	0.1000044	9.17246E-05	320.799194
-3.2005	2.158E-10	320.823728	0.1000038	9.21947E-05	320.823728
-3.0005	2.403E-10	320.84829	0.1000041	9.26672E-05	320.84829
-2.80051	2.244E-10	320.872818	0.100004	9.31364E-05	320.872818
-2.60049	2.289E-10	320.897337	0.1000038	9.36037E-05	320.897337
-2.4005	2.461E-10	320.922028	0.1000034	9.40724E-05	320.922028
-2.20049	2.646E-10	320.946577	0.1000051	9.454E-05	320.946577
-2.0005	2.496E-10	320.971081	0.1000035	9.50057E-05	320.971081
-1.80051	2.458E-10	320.995612	0.1000038	9.54737E-05	320.995612
-1.60049	2.707E-10	321.020121	0.1000044	9.59453E-05	321.020121
-1.40051	2.862E-10	321.044662	0.1000038	9.64191E-05	321.044662
-1.2005	2.633E-10	321.06917	0.100004	9.69006E-05	321.06917
-1.0005	2.557E-10	321.093698	0.1000033	9.7391E-05	321.093698
-0.80051	2.878E-10	321.118227	0.1000035	9.78905E-05	321.118227
-0.60049	2.914E-10	321.142761	0.1000037	9.84006E-05	321.142761
-0.4005	2.728E-10	321.167276	0.100003	9.89158E-05	321.167276
-0.20049	3.004E-10	321.191889	0.1000038	9.9439E-05	321.191889
-0.0005	2.354E-10	321.252078	0.1000039	9.99613E-05	321.252078
0.19949	2.589E-10	321.276594	0.1000038	0.0001004924	321.276594
0.3995	2.929E-10	321.301132	0.1000038	0.0001010255	321.301132
0.59951	2.992E-10	321.32565	0.1000041	0.0001015585	321.32565
0.79949	2.808E-10	321.350215	0.1000036	0.0001020947	321.350215
0.9995	2.93E-10	321.374739	0.1000043	0.000102632	321.374739
1.1995	3.196E-10	321.399251	0.1000035	0.0001031696	321.399251
1.3995	3.165E-10	321.423763	0.1000031	0.0001037083	321.423763
1.5995	3.08E-10	321.448287	0.100003	0.0001042504	321.448287
1.7995	2.468E-10	321.49526	0.1	0.000104865	321.49526
1.9995	2.997E-10	321.519934	0.1000001	0.000105411	321.519934
2.19951	3.27E-10	321.54446	0.0999999	0.000105956	321.54446
2.3995	3.097E-10	321.568977	0.0999999	0.000106501	321.568977
2.59949	3.032E-10	321.593479	0.1	0.000107051	321.593479
2.7995	3.249E-10	321.618012	0.1000002	0.000107597	321.618012
2.9995	3.418E-10	321.642538	0.1	0.000108143	321.642538
3.1995	3.313E-10	321.667073	0.1	0.000108692	321.667073
3.39949	3.265E-10	321.691616	0.0999998	0.000109238	321.691616
3.59951	2.504E-10	321.755038	0.1	0.000109778	321.755038
3.79949	3.314E-10	321.779601	0.1	0.000110326	321.779601
3.9995	3.374E-10	321.8041	0.0999999	0.000110874	321.8041
4.19949	4.211E-10	321.828635	0.1	0.000111415	321.828635
4.39949	3.5E-10	321.853203	0.1	0.000111961	321.853203
4.59949	3.559E-10	321.877723	0.0999999	0.000112502	321.877723
4.79949	3.608E-10	321.902234	0.0999998	0.000113043	321.902234
4.99949	3.637E-10	321.926727	0.1000002	0.000113579	321.926727
5.19949	3.632E-10	321.951347	0.0999999	0.000114112	321.951347
5.39949	3.671E-10	321.975854	0.0999998	0.000114641	321.975854
5.59949	3.637E-10	322.000353	0.1000001	0.00011517	322.000353
5.79951	3.763E-10	322.024956	0.0999999	0.000115697	322.024956
5.99949	3.734E-10	322.049476	0.1	0.00011622	322.049476
6.19949	3.582E-10	322.073974	0.0999999	0.000116739	322.073974
6.39949	3.767E-10	322.098511	0.0999998	0.000117255	322.098511
6.59951	4.014E-10	322.123034	0.0999999	0.00011777	322.123034
6.79949	3.75E-10	322.147561	0.1	0.000118282	322.147561
6.99949	2.662E-10	322.172079	0.1	0.000118789	322.172079
7.19949	3.777E-10	322.196659	0.1	0.000119295	322.196659
7.39949	3.209E-10	322.256126	0.1	0.000119792	322.256126
7.5995	3.515E-10	322.280645	0.0999999	0.000120294	322.280645
7.7995	3.921E-10	322.305165	0.1	0.000120791	322.305165
7.99948	3.735E-10	322.32968	0.1	0.000121284	322.32968
8.1995	3.63E-10	322.35425	0.1000002	0.000121777	322.35425
8.39949	4.045E-10	322.378759	0.1000002	0.000122266	322.378759
8.5995	4.074E-10	322.403262	0.0999999	0.000122749	322.403262
8.7995	3.902E-10	322.427786	0.1000001	0.000123234	322.427786
8.9995	3.86E-10	322.452315	0.1	0.000123714	322.452315
9.19948	4.118E-10	322.476838	0.1	0.000124193	322.476838
9.39949	4.161E-10	322.501352	0.1	0.000124672	322.501352
9.5995	3.992E-10	322.525923	0.1	0.000125152	322.525923
9.7995	4.046E-10	322.550454	0.0999998	0.000125625	322.550454
9.99949	4.211E-10	322.574986	0.1000001	0.000126095	322.574986
9.99948	3.52E-10	322.598398	0.0999999	0.000126097	322.598398
9.7995	2.863E-10	322.622907	0.0999998	0.000125626	322.622907
9.59949	2.491E-10	322.647447	0.0999996	0.000125156	322.647447
9.3995	1.953E-10	322.67195	0.1	0.000124682	322.67195
9.19949	1.775E-10	322.696538	0.0999996	0.000124204	322.696538
8.9995	2.082E-10	322.757624	0.1000002	0.000123723	322.757624
8.79951	1.683E-10	322.782131	0.0999999	0.00012324	322.782131
8.59949	1.286E-10	322.806649	0.0999999	0.00012275	322.806649
8.3995	1.163E-10	322.83116	0.1000001	0.000122257	322.83116
8.1995	1.043E-10	322.855741	0.1000002	0.00012176	322.855741
7.99948	8.73E-11	322.880249	0.1	0.00012126	322.880249
7.7995	8.29E-11	322.904765	0.1000001	0.000120757	322.904765
7.5995	7.24E-11	322.929313	0.0999999	0.000120253	322.929313
7.39951	4.22E-11	322.953835	0.1	0.000119745	322.953835
7.19949	4.33E-11	322.978344	0.1000001	0.000119235	322.978344
6.9995	5.68E-11	323.002859	0.1000001	0.000118723	323.002859
6.7995	3.32E-11	323.027364	0.0999998	0.00011821	323.027364
6.59951	6.4E-12	323.051898	0.1	0.000117694	323.051898
6.39949	2E-13	323.076402	0.0999998	0.000117174	323.076402
6.19951	2.75E-11	323.1009	0.1	0.000116653	323.1009
5.99949	8E-13	323.125403	0.0999996	0.00011613	323.125403
5.7995	-2.3E-11	323.149926	0.1	0.000115601	323.149926
5.59952	-2.14E-11	323.174435	0.1000001	0.000115073	323.174435
5.3995	-1.72E-11	323.199052	0.1	0.000114539	323.199052
5.1995	6.04E-11	323.259445	0.1	0.000114007	323.259445
4.99951	5.2E-12	323.283976	0.1000001	0.000113466	323.283976
4.7995	-1.71E-11	323.30851	0.0999998	0.000112925	323.30851
4.5995	-4.08E-11	323.33306	0.0999999	0.000112381	323.33306
4.39949	-4.74E-11	323.357629	0.1	0.000111836	323.357629
4.1995	-2.36E-11	323.382159	0.1000002	0.000111292	323.382159
3.99949	-5.63E-11	323.406668	0.0999999	0.000110744	323.406668
3.79951	-6.67E-11	323.431157	0.1000001	0.000110197	323.431157
3.5995	-7.53E-11	323.455677	0.1	0.000109648	323.455677
3.3995	-7.06E-11	323.480212	0.1000001	0.000109098	323.480212
3.19951	-7.69E-11	323.504753	0.1	0.000108548	323.504753
2.9995	-9.99E-11	323.529326	0.0999999	0.000107998	323.529326
2.7995	-1.966E-10	323.553847	0.0999999	0.000107449	323.553847
2.59952	-1.12E-10	323.578375	0.1	0.000106899	323.578375
2.39951	-1.041E-10	323.602865	0.1	0.00010635	323.602865
2.1995	-1.102E-10	323.627484	0.0999999	0.000105803	323.627484
1.9995	-1.276E-10	323.652024	0.1	0.000105257	323.652024
1.7995	-1.293E-10	323.676535	0.1000002	0.000104711	323.676535
1.59951	-1.282E-10	323.701056	0.0999999	0.000104167	323.701056
1.39951	-6.56E-11	323.760836	0.1	0.000103627	323.760836
1.19951	-1.109E-10	323.785373	0.1000001	0.000103085	323.785373
0.99951	-1.402E-10	323.8099	0.0999999	0.000102546	323.8099
0.7995	-1.253E-10	323.834436	0.1000001	0.000102008	323.834436
0.59952	-1.351E-10	323.859105	0.0999998	0.000101472	323.859105
0.39951	-1.387E-10	323.883644	0.0999999	0.000100937	323.883644
0.19951	-1.518E-10	323.908163	0.1000001	0.000100403	323.908163
-0.0005	-1.56E-10	323.932704	0.1	9.9873E-05	323.932704
-0.20049	-1.616E-10	323.957307	0.1000002	9.9348E-05	323.957307
-0.40049	-1.634E-10	323.981833	0.1	9.8824E-05	323.981833
-0.60049	-1.67E-10	324.006353	0.0999998	9.8312E-05	324.006353
-0.8005	-1.769E-10	324.030876	0.1000001	9.7807E-05	324.030876
-1.00049	-1.839E-10	324.055389	0.1000002	9.7312E-05	324.055389
-1.2005	-1.826E-10	324.079898	0.1000001	9.6828E-05	324.079898
-1.40049	-1.724E-10	324.104415	0.1	9.6351E-05	324.104415
-1.60048	-1.988E-10	324.12895	0.1000001	9.5881E-05	324.12895
-1.80049	-2.118E-10	324.153491	0.1	9.5412E-05	324.153491
-2.00051	-1.841E-10	324.178009	0.0999999	9.4947E-05	324.178009
-2.2005	-1.923E-10	324.20261	0.1000001	9.4481E-05	324.20261
-2.40049	-1.52E-10	324.26242	0.1000001	9.4018E-05	324.26242
-2.60049	-1.834E-10	324.28697	0.1	9.3549E-05	324.28697
-2.8005	-1.985E-10	324.311503	0.1000001	9.3081E-05	324.311503
-3.00049	-2.182E-10	324.336033	0.1000001	9.2613E-05	324.336033
-3.20048	-2.029E-10	324.360603	0.1000002	9.2144E-05	324.360603
-3.4005	-2.037E-10	324.385153	0.1000002	9.1672E-05	324.385153
-3.60047	-2.341E-10	324.409669	0.1	9.1201E-05	324.409669
-3.80049	-2.379E-10	324.434152	0.1	9.073E-05	324.434152
-4.00049	-2.17E-10	324.45868	0.1000002	9.0256E-05	324.45868
-4.20049	-2.304E-10	324.483218	0.1000002	8.978E-05	324.483218
-4.40049	-2.421E-10	324.507736	0.0999997	8.9302E-05	324.507736
-4.60049	-2.562E-10	324.532315	0.0999999	8.8824E-05	324.532315
-4.8005	-2.364E-10	324.556843	0.1	8.8345E-05	324.556843
-5.00048	-2.103E-10	324.584694	0.1000048	8.77808E-05	324.584694
-5.20049	-2.579E-10	324.609216	0.1000052	8.72992E-05	324.609216
-5.4005	-2.622E-10	324.633725	0.1000046	8.68163E-05	324.633725
-5.60048	-8.27E-11	324.658265	0.1000047	8.63299E-05	324.658265
-5.80048	-2.343E-10	324.68278	0.1000051	8.58426E-05	324.68278
-6.0005	-2.541E-10	324.707318	0.1000049	8.53537E-05	324.707318
-6.20049	-1.946E-10	324.766897	0.1000047	8.48651E-05	324.766897
-6.40048	-2.492E-10	324.791626	0.1000051	8.43717E-05	324.791626
-6.60048	-2.552E-10	324.816146	0.1000047	8.3877E-05	324.816146
-6.80046	-2.487E-10	324.840657	0.1000054	8.33805E-05	324.840657
-7.00048	-2.517E-10	324.865241	0.100004	8.28823E-05	324.865241
-7.20047	-2.645E-10	324.889761	0.1000052	8.23837E-05	324.889761
-7.40047	-2.861E-10	324.914275	0.1000057	8.1881E-05	324.914275
-7.60049	-2.68E-10	324.938885	0.1000047	8.1376E-05	324.938885
-7.80047	-5.169E-10	324.963418	0.1000052	8.08704E-05	324.963418
-8.00048	-3.094E-10	324.987944	0.1000057	8.03624E-05	324.987944
-8.20048	-3.113E-10	325.012478	0.1000045	7.98513E-05	325.012478
-8.40049	-2.808E-10	325.036989	0.1000053	7.93405E-05	325.036989
-8.60049	-2.968E-10	325.061521	0.1000049	7.88262E-05	325.061521
-8.80047	-3.123E-10	325.086037	0.1000061	7.83101E-05	325.086037
-9.00049	-2.942E-10	325.110571	0.1000058	7.7792E-05	325.110571
-9.2005	-3.116E-10	325.135081	0.1000051	7.72697E-05	325.135081
-9.40049	-3.018E-10	325.159707	0.1000054	7.67464E-05	325.159707
-9.6005	-3.039E-10	325.184217	0.100005	7.62223E-05	325.184217
-9.80047	-3.18E-10	325.208815	0.1000053	7.5699E-05	325.208815
-10.00047	-2.753E-10	325.266164	0.1000044	7.51794E-05	325.266164
-10.20048	-2.845E-10	325.290896	0.1000054	7.46499E-05	325.290896
-10.40048	-3.047E-10	325.315431	0.1000043	7.41179E-05	325.315431
-10.60049	-3.168E-10	325.339963	0.1000045	7.35847E-05	325.339963
-10.80048	-3.014E-10	325.364538	0.1000039	7.30481E-05	325.364538
-11.00048	-3.225E-10	325.389066	0.1000052	7.25101E-05	325.389066
-11.20049	-3.37E-10	325.413582	0.1000047	7.19689E-05	325.413582
-11.40049	-3.226E-10	325.438167	0.1000054	7.14258E-05	325.438167
-11.6005	-3.021E-10	325.462762	0.1000045	7.08793E-05	325.462762
-11.80049	-3.273E-10	325.487291	0.1000059	7.0331E-05	325.487291
-12.00048	-3.586E-10	325.511804	0.100005	6.97798E-05	325.511804
