#scan	iMeasureCycle=1	iMux=0	time=0.037	N=222	LocalTime=22/06/2023 01:56:49
#VGate(V)	IGate(A)	time(s)	VDrain(V)	IDrain(A)	time(s)
-12.00052	-3.1503E-09	0.062869	0.100006	5.4834E-05	0.062869
-11.80049	-2.9749E-09	0.087744	0.1000062	5.54392E-05	0.087744
-11.60052	-1.1142E-09	0.112271	0.1000066	5.60423E-05	0.112271
-11.40048	-4.88E-10	0.136801	0.1000067	5.66415E-05	0.136801
-11.20048	-3.256E-10	0.16134	0.1000075	5.72394E-05	0.16134
-11.00049	-2.159E-10	0.185855	0.1000067	5.78348E-05	0.185855
-10.80049	-3.27E-11	0.210407	0.1000066	5.84285E-05	0.210407
-10.60048	-4.57E-11	0.234973	0.1000061	5.90195E-05	0.234973
-10.40051	-3.69E-11	0.259527	0.1000069	5.96117E-05	0.259527
-10.20049	-2.15E-11	0.284039	0.1000069	6.01989E-05	0.284039
-10.00047	-3.7E-12	0.308571	0.1000068	6.07859E-05	0.308571
-9.80048	1.42E-11	0.333084	0.1000071	6.13713E-05	0.333084
-9.60048	4.34E-11	0.357611	0.1000064	6.19541E-05	0.357611
-9.40049	-6.99E-11	0.38214	0.1000074	6.25366E-05	0.38214
-9.20052	2.37E-11	0.406743	0.1000071	6.31153E-05	0.406743
-9.00048	4.27E-11	0.431272	0.1000065	6.36891E-05	0.431272
-8.80049	6.94E-11	0.455783	0.100007	6.42627E-05	0.455783
-8.60048	1.022E-10	0.480325	0.1000061	6.48291E-05	0.480325
-8.40049	8.23E-11	0.504841	0.1000062	6.53971E-05	0.504841
-8.20048	7E-11	0.52938	0.1000053	6.59616E-05	0.52938
-8.0005	1.19E-10	0.553891	0.1000063	6.6526E-05	0.553891
-7.80047	1.365E-10	0.578431	0.100007	6.70874E-05	0.578431
-7.60051	8.17E-11	0.626691	0.1000057	6.76428E-05	0.626691
-7.4005	1.13E-10	0.651297	0.1000066	6.82023E-05	0.651297
-7.20049	1.234E-10	0.67582	0.1000062	6.87605E-05	0.67582
-7.0005	1.542E-10	0.700334	0.1000062	6.93162E-05	0.700334
-6.80047	1.449E-10	0.724967	0.100006	6.98695E-05	0.724967
-6.6005	1.413E-10	0.749495	0.1000059	7.0421E-05	0.749495
-6.40049	1.523E-10	0.774031	0.1000052	7.09701E-05	0.774031
-6.20049	1.8E-10	0.798553	0.1000049	7.15178E-05	0.798553
-6.0005	1.793E-10	0.823078	0.1000051	7.2064E-05	0.823078
-5.80048	1.6E-10	0.847595	0.100006	7.26099E-05	0.847595
-5.60051	1.737E-10	0.872113	0.1000061	7.3153E-05	0.872113
-5.4005	2.083E-10	0.896634	0.1000059	7.36936E-05	0.896634
-5.20049	1.971E-10	0.921153	0.1000047	7.42327E-05	0.921153
-5.00049	1.81E-10	0.945666	0.1000059	7.47708E-05	0.945666
-4.80048	2.055E-10	0.97019	0.1000061	7.5308E-05	0.97019
-4.6005	2.141E-10	0.994717	0.1000057	7.58426E-05	0.994717
-4.40048	2.325E-10	1.019244	0.1000056	7.63774E-05	1.019244
-4.20049	2.136E-10	1.043755	0.1000066	7.69107E-05	1.043755
-4.0005	2.126E-10	1.068362	0.1000054	7.74409E-05	1.068362
-3.80048	1.498E-10	1.127942	0.1000056	7.79675E-05	1.127942
-3.60047	2.12E-10	1.152472	0.1000068	7.84986E-05	1.152472
-3.4005	2.324E-10	1.176993	0.1000051	7.90271E-05	1.176993
-3.2005	2.332E-10	1.201664	0.1000067	7.95564E-05	1.201664
-3.0005	2.24E-10	1.226242	0.1000051	8.00821E-05	1.226242
-2.80048	2.349E-10	1.250775	0.1000058	8.06096E-05	1.250775
-2.60049	2.523E-10	1.275304	0.1000052	8.11341E-05	1.275304
-2.40049	2.578E-10	1.299792	0.1000055	8.16597E-05	1.299792
-2.2005	2.492E-10	1.324321	0.1000053	8.21837E-05	1.324321
-2.0005	2.536E-10	1.34885	0.1000046	8.27065E-05	1.34885
-1.8005	2.691E-10	1.373392	0.1000051	8.32301E-05	1.373392
-1.60048	2.638E-10	1.397996	0.100005	8.37527E-05	1.397996
-1.40049	2.908E-10	1.422548	0.1000057	8.42797E-05	1.422548
-1.20051	2.794E-10	1.44706	0.1000055	8.481E-05	1.44706
-1.0005	2.69E-10	1.471596	0.1000046	8.53463E-05	1.471596
-0.80049	2.983E-10	1.496112	0.1000054	8.58963E-05	1.496112
-0.60048	3.108E-10	1.520653	0.1000049	8.6455E-05	1.520653
-0.40052	2.959E-10	1.545166	0.1000049	8.7027E-05	1.545166
-0.2005	2.794E-10	1.56969	0.100005	8.76076E-05	1.56969
-0.0005	4.956E-10	1.629515	0.1000055	8.81896E-05	1.629515
0.19948	3.062E-10	1.654026	0.1000041	8.87846E-05	1.654026
0.3995	3.186E-10	1.678539	0.1000052	8.93848E-05	1.678539
0.59952	3.146E-10	1.703101	0.1000051	8.99853E-05	1.703101
0.79951	3.098E-10	1.727728	0.1000053	9.05889E-05	1.727728
0.99948	3.167E-10	1.752261	0.1000044	9.11946E-05	1.752261
1.1995	3.241E-10	1.776795	0.1000041	9.18025E-05	1.776795
1.39949	2.826E-10	1.801311	0.1000047	9.24129E-05	1.801311
1.5995	3.155E-10	1.82584	0.1000043	9.30255E-05	1.82584
1.79949	3.037E-10	1.850368	0.1000042	9.36402E-05	1.850368
1.99949	3.487E-10	1.874902	0.1000052	9.42583E-05	1.874902
2.1995	3.575E-10	1.89942	0.1000048	9.48762E-05	1.89942
2.3995	3.275E-10	1.923949	0.1000053	9.54956E-05	1.923949
2.59949	3.434E-10	1.948476	0.1000037	9.61157E-05	1.948476
2.7995	3.569E-10	1.973009	0.1000046	9.67357E-05	1.973009
2.99949	3.513E-10	1.997539	0.1000044	9.73585E-05	1.997539
3.19947	3.591E-10	2.022088	0.1000031	9.79796E-05	2.022088
3.39949	3.654E-10	2.046603	0.1000043	9.86018E-05	2.046603
3.59948	3.458E-10	2.071213	0.1000037	9.92222E-05	2.071213
3.79948	2.837E-10	2.131208	0.1000039	9.9832E-05	2.131208
3.99949	3.616E-10	2.15572	0.1000044	0.0001004527	2.15572
4.19948	3.717E-10	2.180261	0.1000041	0.0001010694	2.180261
4.39947	3.462E-10	2.204793	0.100004	0.0001016841	2.204793
4.59949	3.545E-10	2.229368	0.1000041	0.0001022962	2.229368
4.79949	3.774E-10	2.253887	0.1000038	0.0001029056	2.253887
4.99948	3.895E-10	2.278419	0.1000038	0.0001035124	2.278419
5.1995	3.747E-10	2.30293	0.100005	0.0001041143	2.30293
5.39948	3.841E-10	2.327473	0.1000041	0.0001047151	2.327473
5.59951	3.578E-10	2.357053	0.0999998	0.00010539	2.357053
5.79951	4.052E-10	2.381589	0.1	0.000105981	2.381589
5.99947	3.832E-10	2.406183	0.1	0.00010657	2.406183
6.19949	3.713E-10	2.430706	0.1	0.000107156	2.430706
6.39947	4.004E-10	2.455212	0.0999999	0.000107739	2.455212
6.59948	4.276E-10	2.479736	0.0999999	0.000108317	2.479736
6.79949	4.011E-10	2.504259	0.1	0.000108891	2.504259
6.99947	3.867E-10	2.528789	0.0999999	0.000109462	2.528789
7.19949	4.219E-10	2.5533	0.0999999	0.000110028	2.5533
7.39949	4.182E-10	2.57782	0.0999998	0.000110594	2.57782
7.5995	3.642E-10	2.635736	0.0999999	0.000111149	2.635736
7.79949	4.031E-10	2.660265	0.1	0.000111705	2.660265
7.99947	4.006E-10	2.68479	0.1000001	0.000112262	2.68479
8.19949	3.934E-10	2.7093	0.1	0.000112814	2.7093
8.39951	4.194E-10	2.733915	0.1	0.000113358	2.733915
8.5995	4.292E-10	2.758443	0.1	0.000113901	2.758443
8.7995	4.105E-10	2.782992	0.0999999	0.000114442	2.782992
8.99948	4.377E-10	2.807503	0.1000001	0.00011498	2.807503
9.19948	4.24E-10	2.832038	0.1	0.000115515	2.832038
9.39951	4.229E-10	2.856552	0.0999999	0.000116051	2.856552
9.59949	4.449E-10	2.881086	0.1	0.000116581	2.881086
9.7995	4.454E-10	2.905667	0.1	0.000117109	2.905667
9.99948	4.236E-10	2.930178	0.0999999	0.000117634	2.930178
9.99948	3.898E-10	2.953538	0.1000001	0.000117634	2.953538
9.79951	3.118E-10	2.978084	0.1	0.000117109	2.978084
9.59951	2.489E-10	3.002588	0.1000002	0.00011658	3.002588
9.39951	2.085E-10	3.027133	0.0999999	0.00011605	3.027133
9.19949	3.216E-10	3.051636	0.0999998	0.000115516	3.051636
8.9995	2.048E-10	3.076238	0.1	0.00011498	3.076238
8.79951	2.107E-10	3.134458	0.0999997	0.000114435	3.134458
8.59949	1.742E-10	3.158992	0.1	0.000113886	3.158992
8.39952	1.301E-10	3.183515	0.0999999	0.000113335	3.183515
8.19949	2.56E-11	3.208037	0.1000001	0.000112774	3.208037
7.99948	9.82E-11	3.232619	0.1000001	0.000112216	3.232619
7.7995	9.05E-11	3.257145	0.0999999	0.000111654	3.257145
7.59951	8.59E-11	3.281659	0.0999998	0.000111087	3.281659
7.3995	6.23E-11	3.306171	0.1	0.000110517	3.306171
7.19949	4.53E-11	3.330675	0.0999999	0.000109946	3.330675
6.99949	4.97E-11	3.355188	0.1000002	0.000109371	3.355188
6.79952	5.05E-11	3.379747	0.0999999	0.000108791	3.379747
6.59953	3.95E-11	3.404397	0.1	0.00010821	3.404397
6.39952	1.34E-11	3.428911	0.1000001	0.000107624	3.428911
6.19949	-3E-12	3.453438	0.1	0.000107035	3.453438
5.99948	1.16E-11	3.477955	0.0999999	0.000106442	3.477955
5.79949	1.02E-11	3.502467	0.1000002	0.000105847	3.502467
5.59952	-1.91E-11	3.527159	0.0999998	0.000105248	3.527159
5.39949	-2.98E-11	3.551696	0.0999999	0.000104644	3.551696
5.19951	-6.7E-12	3.576213	0.0999999	0.000104038	3.576213
4.99951	2.31E-11	3.63616	0.1000001	0.00010343	3.63616
4.79951	-1.84E-11	3.660695	0.0999998	0.000102819	3.660695
4.59951	-2.12E-11	3.685211	0.0999998	0.000102204	3.685211
4.3995	-5.61E-11	3.709741	0.0999999	0.000101584	3.709741
4.19949	-5.25E-11	3.734354	0.1	0.000100966	3.734354
3.9995	-3.93E-11	3.758923	0.1	0.000100344	3.758923
3.79947	-5.85E-11	3.783452	0.1	9.9722E-05	3.783452
3.5995	-6.74E-11	3.807986	0.1000001	9.9099E-05	3.807986
3.39951	-9.01E-11	3.832503	0.1000001	9.8472E-05	3.832503
3.19951	-7.3E-11	3.857022	0.1	9.7847E-05	3.857022
2.99951	-7.23E-11	3.881537	0.0999999	9.7219E-05	3.881537
2.7995	-1.077E-10	3.906062	0.1	9.6594E-05	3.906062
2.59952	-1.188E-10	3.930668	0.1	9.5969E-05	3.930668
2.39954	-9.44E-11	3.95519	0.1000002	9.5344E-05	3.95519
2.19951	-1.068E-10	3.979711	0.1	9.4722E-05	3.979711
1.9995	-1.249E-10	4.004226	0.0999997	9.4102E-05	4.004226
1.79949	-1.129E-10	4.028775	0.0999999	9.3479E-05	4.028775
1.59951	-1.358E-10	4.053282	0.1	9.2863E-05	4.053282
1.3995	-1.257E-10	4.077893	0.0999999	9.2251E-05	4.077893
1.19949	-8.4E-11	4.133472	0.0999997	9.1639E-05	4.133472
0.99952	-1.196E-10	4.158005	0.0999999	9.1028E-05	4.158005
0.79951	-1.233E-10	4.182541	0.0999999	9.042E-05	4.182541
0.59952	-1.385E-10	4.207074	0.0999999	8.9816E-05	4.207074
0.39952	-1.711E-10	4.23178	0.1	8.9212E-05	4.23178
0.1995	-1.515E-10	4.256313	0.1	8.8613E-05	4.256313
-0.00049	-1.339E-10	4.284173	0.1000056	8.79362E-05	4.284173
-0.20049	-1.575E-10	4.308664	0.1000053	8.73502E-05	4.308664
-0.40047	-1.652E-10	4.333207	0.1000054	8.67733E-05	4.333207
-0.60047	-1.765E-10	4.357727	0.1000045	8.6208E-05	4.357727
-0.80049	-1.684E-10	4.382268	0.1000038	8.56546E-05	4.382268
-1.00052	-1.808E-10	4.406857	0.100005	8.51138E-05	4.406857
-1.20049	-2.118E-10	4.431484	0.1000055	8.45828E-05	4.431484
-1.4005	-7.11E-11	4.456008	0.1000057	8.40564E-05	4.456008
-1.60048	-1.59E-10	4.480539	0.1000053	8.35332E-05	4.480539
-1.80049	-1.994E-10	4.505042	0.1000055	8.30105E-05	4.505042
-2.00049	-2.207E-10	4.529563	0.1000061	8.24882E-05	4.529563
-2.20052	-1.943E-10	4.554096	0.100006	8.1966E-05	4.554096
-2.40048	-2.055E-10	4.578616	0.1000053	8.1441E-05	4.578616
-2.60048	-1.47E-10	4.642312	0.1000044	8.09177E-05	4.642312
-2.8005	-1.931E-10	4.66685	0.1000056	8.03928E-05	4.66685
-3.0005	-2.27E-10	4.691367	0.1000062	7.98675E-05	4.691367
-3.20049	-2.055E-10	4.715874	0.1000056	7.93401E-05	4.715874
-3.40047	-2.078E-10	4.740475	0.1000058	7.88125E-05	4.740475
-3.60048	-2.331E-10	4.76501	0.1000063	7.82837E-05	4.76501
-3.80048	-4.371E-10	4.789538	0.1000066	7.77538E-05	4.789538
-4.00048	-2.456E-10	4.814054	0.1000061	7.72217E-05	4.814054
-4.20049	-2.445E-10	4.838562	0.1000061	7.66899E-05	4.838562
-4.4005	-2.424E-10	4.86309	0.1000046	7.61562E-05	4.86309
-4.60048	-2.498E-10	4.887607	0.1000054	7.56202E-05	4.887607
-4.80048	-2.813E-10	4.912121	0.100005	7.50837E-05	4.912121
-5.00049	-2.595E-10	4.936643	0.1000058	7.4546E-05	4.936643
-5.2005	-2.435E-10	4.961161	0.1000057	7.40068E-05	4.961161
-5.4005	-2.759E-10	4.985686	0.1000052	7.34656E-05	4.985686
-5.60049	-2.904E-10	5.010208	0.1000056	7.29233E-05	5.010208
-5.80048	-2.737E-10	5.034747	0.1000072	7.23794E-05	5.034747
-6.00047	-2.641E-10	5.0592	0.1000051	7.18312E-05	5.0592
-6.20048	-2.778E-10	5.083817	0.1000059	7.12837E-05	5.083817
-6.40047	-1.969E-10	5.140811	0.1000056	7.07362E-05	5.140811
-6.6005	-2.622E-10	5.16534	0.1000062	7.01837E-05	5.16534
-6.80047	-2.976E-10	5.189879	0.1000063	6.96306E-05	5.189879
-7.00046	-2.675E-10	5.214405	0.1000063	6.9074E-05	5.214405
-7.20049	-2.826E-10	5.238965	0.1000061	6.85168E-05	5.238965
-7.40047	-2.901E-10	5.263516	0.1000071	6.79575E-05	5.263516
-7.60051	-2.992E-10	5.288025	0.1000062	6.73958E-05	5.288025
-7.80047	-3.002E-10	5.312543	0.1000067	6.6834E-05	5.312543
-8.00049	-3.02E-10	5.337071	0.1000061	6.62683E-05	5.337071
-8.20047	-2.972E-10	5.361587	0.1000057	6.57008E-05	5.361587
-8.40048	-3.045E-10	5.386098	0.1000053	6.51321E-05	5.386098
-8.6005	-3.191E-10	5.410716	0.1000063	6.45619E-05	5.410716
-8.80048	-3.189E-10	5.435256	0.1000061	6.399E-05	5.435256
-9.00047	-2.987E-10	5.459773	0.1000061	6.34143E-05	5.459773
-9.20047	-3.188E-10	5.484319	0.1000066	6.28386E-05	5.484319
-9.40048	-3.355E-10	5.508835	0.1000064	6.22603E-05	5.508835
-9.60049	-3.229E-10	5.533361	0.1000064	6.16797E-05	5.533361
-9.80047	-3.135E-10	5.557892	0.1000065	6.11021E-05	5.557892
-10.00047	-3.28E-10	5.582411	0.1000075	6.05209E-05	5.582411
-10.20049	-2.801E-10	5.642544	0.1000059	5.99447E-05	5.642544
-10.40048	-2.96E-10	5.667071	0.1000064	5.93602E-05	5.667071
-10.60048	-3.323E-10	5.69162	0.1000058	5.87721E-05	5.69162
-10.80048	-3.384E-10	5.716138	0.1000064	5.81831E-05	5.716138
-11.00049	-3.148E-10	5.74074	0.100006	5.75924E-05	5.74074
-11.20051	-3.299E-10	5.765272	0.1000071	5.70001E-05	5.765272
-11.4005	-3.568E-10	5.789814	0.1000058	5.64046E-05	5.789814
-11.60048	-3.55E-10	5.814337	0.1000067	5.58094E-05	5.814337
-11.80046	-3.388E-10	5.838866	0.1000064	5.5211E-05	5.838866
-12.00047	-2.047E-10	5.863381	0.1000053	5.46096E-05	5.863381
#scan	iMeasureCycle=2	iMux=0	time=279.823	N=222	LocalTime=22/06/2023 02:01:29
#VGate(V)	IGate(A)	time(s)	VDrain(V)	IDrain(A)	time(s)
-12.00046	-8.25E-11	279.830549	0.1000068	5.47219E-05	279.830549
-11.8005	-4.06E-11	279.855523	0.1000057	5.53238E-05	279.855523
-11.60048	3.8E-12	279.881149	0.1000063	5.59257E-05	279.881149
-11.40051	4.84E-11	279.905762	0.1000061	5.65237E-05	279.905762
-11.20049	4.1E-11	279.930274	0.1000064	5.71206E-05	279.930274
-11.00049	3.37E-11	279.954792	0.1000056	5.77156E-05	279.954792
-10.80053	8.83E-11	279.979311	0.1000048	5.83085E-05	279.979311
-10.60049	9.08E-11	280.003819	0.1000061	5.89003E-05	280.003819
-10.40046	8.07E-11	280.028347	0.1000076	5.94909E-05	280.028347
-10.20049	9.67E-11	280.052883	0.1000064	6.00787E-05	280.052883
-10.00051	1.011E-10	280.077495	0.1000069	6.06647E-05	280.077495
-9.80049	1.173E-10	280.102019	0.1000067	6.12502E-05	280.102019
-9.60051	1.228E-10	280.12654	0.1000062	6.18324E-05	280.12654
-9.40051	1.276E-10	280.151056	0.1000061	6.24146E-05	280.151056
-9.20047	3.452E-10	280.175668	0.1000064	6.29947E-05	280.175668
-9.00048	1.471E-10	280.200172	0.1000075	6.35685E-05	280.200172
-8.80049	1.715E-10	280.224698	0.1000066	6.41418E-05	280.224698
-8.60049	1.556E-10	280.249609	0.1000066	6.47104E-05	280.249609
-8.40047	1.487E-10	280.274123	0.1000064	6.5278E-05	280.274123
-8.20049	1.638E-10	280.298655	0.1000054	6.58441E-05	280.298655
-8.00049	1.806E-10	280.323162	0.1000068	6.64085E-05	280.323162
-7.80047	1.779E-10	280.347697	0.100007	6.69701E-05	280.347697
-7.60048	1.238E-10	280.393577	0.1000062	6.75283E-05	280.393577
-7.4005	1.515E-10	280.418135	0.1000064	6.80897E-05	280.418135
-7.20048	1.873E-10	280.442659	0.1000057	6.86475E-05	280.442659
-7.00047	1.918E-10	280.4672	0.1000066	6.92042E-05	280.4672
-6.80048	1.792E-10	280.491767	0.1000063	6.97584E-05	280.491767
-6.60049	3.34E-11	280.516279	0.1000067	7.03108E-05	280.516279
-6.40049	1.782E-10	280.540801	0.1000059	7.08613E-05	280.540801
-6.20051	2.144E-10	280.56542	0.1000062	7.14101E-05	280.56542
-6.00051	1.876E-10	280.589951	0.1000055	7.19564E-05	280.589951
-5.80048	1.809E-10	280.614465	0.1000059	7.2504E-05	280.614465
-5.6005	2.259E-10	280.638995	0.1000057	7.30471E-05	280.638995
-5.40051	2.134E-10	280.663516	0.1000051	7.35898E-05	280.663516
-5.20049	2.094E-10	280.688039	0.1000053	7.41302E-05	280.688039
-5.00049	2.295E-10	280.712546	0.1000056	7.46694E-05	280.712546
-4.80048	2.081E-10	280.737143	0.1000053	7.52063E-05	280.737143
-4.60051	2.341E-10	280.761698	0.1000062	7.57442E-05	280.761698
-4.40051	2.429E-10	280.786233	0.1000051	7.62782E-05	280.786233
-4.2005	2.33E-10	280.810746	0.100005	7.68112E-05	280.810746
-4.00049	2.293E-10	280.835269	0.1000052	7.73436E-05	280.835269
-3.80051	1.705E-10	280.895249	0.1000057	7.78714E-05	280.895249
-3.60048	2.31E-10	280.919784	0.100005	7.84016E-05	280.919784
-3.40049	2.368E-10	280.944299	0.1000044	7.89311E-05	280.944299
-3.20048	2.362E-10	280.968785	0.1000058	7.94584E-05	280.968785
-3.00048	2.548E-10	280.993357	0.1000042	7.99854E-05	280.993357
-2.80049	2.427E-10	281.017871	0.100006	8.05123E-05	281.017871
-2.60048	2.535E-10	281.042373	0.1000061	8.1038E-05	281.042373
-2.40051	2.763E-10	281.066897	0.1000053	8.15627E-05	281.066897
-2.20051	2.71E-10	281.091419	0.1000049	8.20865E-05	281.091419
-2.00051	2.484E-10	281.115924	0.1000044	8.26106E-05	281.115924
-1.8005	2.615E-10	281.140439	0.100005	8.31335E-05	281.140439
-1.6005	3.043E-10	281.164956	0.1000044	8.36577E-05	281.164956
-1.4005	2.802E-10	281.189501	0.1000047	8.41839E-05	281.189501
-1.2005	2.711E-10	281.214001	0.1000046	8.47137E-05	281.214001
-1.0005	2.922E-10	281.238588	0.100004	8.52513E-05	281.238588
-0.80051	3.005E-10	281.263139	0.1000044	8.57988E-05	281.263139
-0.60049	2.971E-10	281.287662	0.1000046	8.63601E-05	281.287662
-0.40053	2.896E-10	281.312174	0.1000049	8.69297E-05	281.312174
-0.20052	2.978E-10	281.336706	0.100005	8.75121E-05	281.336706
-0.00051	2.34E-10	281.396917	0.1000047	8.80949E-05	281.396917
0.19949	2.736E-10	281.421424	0.1000042	8.86928E-05	281.421424
0.39949	3.236E-10	281.445964	0.1000047	8.92926E-05	281.445964
0.59951	3.004E-10	281.470477	0.1000048	8.98945E-05	281.470477
0.79951	2.857E-10	281.495057	0.1000048	9.05013E-05	281.495057
0.99951	3.133E-10	281.519576	0.1000049	9.11074E-05	281.519576
1.1995	3.271E-10	281.544097	0.1000049	9.17166E-05	281.544097
1.39948	4.184E-10	281.568708	0.1000043	9.23281E-05	281.568708
1.5995	3.505E-10	281.59324	0.1000049	9.29418E-05	281.59324
1.79948	3.32E-10	281.617743	0.1000051	9.35582E-05	281.617743
1.9995	3.487E-10	281.642277	0.1000048	9.41746E-05	281.642277
2.19953	3.589E-10	281.666804	0.1000051	9.47959E-05	281.666804
2.3995	3.498E-10	281.691325	0.1000047	9.54164E-05	281.691325
2.5995	3.382E-10	281.715835	0.1000053	9.60382E-05	281.715835
2.79952	3.481E-10	281.740408	0.1000047	9.66593E-05	281.740408
2.9995	3.594E-10	281.764944	0.1000044	9.72821E-05	281.764944
3.19949	3.632E-10	281.789454	0.1000045	9.79038E-05	281.789454
3.39949	3.52E-10	281.813978	0.1000043	9.85255E-05	281.813978
3.59953	3.532E-10	281.838512	0.1000051	9.91498E-05	281.838512
3.79949	3.124E-10	281.898556	0.1000047	9.97626E-05	281.898556
3.99951	3.504E-10	281.923079	0.1000046	0.0001003845	281.923079
4.19949	2.952E-10	281.947626	0.1000037	0.0001010024	281.947626
4.3995	3.395E-10	281.972135	0.1000038	0.0001016177	281.972135
4.5995	3.484E-10	281.996717	0.1000034	0.0001022321	281.996717
4.79949	3.561E-10	282.021236	0.1000036	0.0001028437	282.021236
4.99949	3.65E-10	282.045753	0.1000036	0.0001034507	282.045753
5.1995	3.683E-10	282.070278	0.1000041	0.0001040555	282.070278
5.39949	3.676E-10	282.09488	0.1000033	0.0001046553	282.09488
5.59951	3.606E-10	282.124425	0.0999999	0.000105331	282.124425
5.79948	3.752E-10	282.148942	0.0999997	0.000105927	282.148942
5.99948	3.773E-10	282.173459	0.0999999	0.000106514	282.173459
6.19949	3.735E-10	282.197987	0.0999999	0.000107102	282.197987
6.39951	3.998E-10	282.222508	0.0999998	0.000107685	282.222508
6.59949	4.001E-10	282.247074	0.1	0.000108264	282.247074
6.7995	3.801E-10	282.271706	0.0999998	0.00010884	282.271706
6.99949	3.981E-10	282.296221	0.0999999	0.000109413	282.296221
7.19948	4.033E-10	282.320742	0.0999999	0.000109982	282.320742
7.39949	4.03E-10	282.34524	0.1	0.000110547	282.34524
7.59949	3.46E-10	282.402952	0.1	0.000111102	282.402952
7.79949	3.999E-10	282.427467	0.0999999	0.000111664	282.427467
7.9995	3.859E-10	282.452007	0.1000001	0.000112219	282.452007
8.19946	3.901E-10	282.476525	0.1	0.00011277	282.476525
8.39951	4.082E-10	282.501116	0.1	0.000113318	282.501116
8.59949	4.145E-10	282.525617	0.1000002	0.000113861	282.525617
8.79949	4.219E-10	282.550152	0.0999998	0.000114404	282.550152
8.99951	4.208E-10	282.574831	0.1000001	0.000114941	282.574831
9.19951	4.072E-10	282.599365	0.1000001	0.000115479	282.599365
9.39947	4.287E-10	282.623877	0.0999999	0.000116016	282.623877
9.59949	4.443E-10	282.648387	0.0999997	0.000116546	282.648387
9.79951	4.164E-10	282.672901	0.1	0.000117077	282.672901
9.99949	4.175E-10	282.697426	0.1000001	0.000117602	282.697426
9.99947	3.86E-10	282.720761	0.1000001	0.000117602	282.720761
9.79949	2.905E-10	282.74535	0.0999999	0.000117077	282.74535
9.5995	2.401E-10	282.769877	0.1000002	0.000116547	282.769877
9.3995	2.165E-10	282.794405	0.0999999	0.00011602	282.794405
9.19948	1.889E-10	282.818915	0.0999999	0.000115485	282.818915
8.99947	1.678E-10	282.843443	0.0999998	0.000114947	282.843443
8.79951	2.121E-10	282.901857	0.0999998	0.000114403	282.901857
8.5995	1.585E-10	282.926398	0.1	0.000113853	282.926398
8.39952	1.174E-10	282.950908	0.1000001	0.0001133	282.950908
8.19949	1.561E-10	282.975516	0.1000001	0.000112745	282.975516
7.99949	1.456E-10	283.000071	0.0999998	0.000112182	283.000071
7.7995	1.009E-10	283.024599	0.0999998	0.000111619	283.024599
7.59947	7.99E-11	283.049112	0.0999996	0.000111052	283.049112
7.39948	6.53E-11	283.073651	0.1	0.000110485	283.073651
7.19951	5.13E-11	283.098167	0.1	0.000109912	283.098167
6.99951	4.38E-11	283.122687	0.1	0.000109335	283.122687
6.79951	5.85E-11	283.147192	0.1	0.000108756	283.147192
6.5995	2.44E-11	283.171711	0.1	0.000108173	283.171711
6.39951	1.1E-12	283.196227	0.1	0.00010759	283.196227
6.19951	1.41E-11	283.220749	0.1	0.000107	283.220749
5.9995	1.87E-11	283.245367	0.1000001	0.000106408	283.245367
5.7995	-1.1E-11	283.26992	0.0999999	0.000105812	283.26992
5.59952	-1.95E-11	283.294455	0.0999999	0.000105211	283.294455
5.3995	-1.95E-11	283.318983	0.1000002	0.000104609	283.318983
5.1995	-1.427E-10	283.34348	0.1000002	0.000104004	283.34348
4.99947	6.6E-12	283.403633	0.0999999	0.000103396	283.403633
4.79949	-1.26E-11	283.428184	0.1000001	0.000102784	283.428184
4.59951	-4.22E-11	283.452712	0.0999999	0.000102167	283.452712
4.3995	-6.72E-11	283.477234	0.1	0.000101551	283.477234
4.19951	-5.44E-11	283.501809	0.0999998	0.000100929	283.501809
3.99949	-4.63E-11	283.526318	0.1000001	0.000100308	283.526318
3.79951	-6.21E-11	283.550831	0.0999998	9.9683E-05	283.550831
3.5995	-9.31E-11	283.575441	0.1	9.9059E-05	283.575441
3.39951	-7.43E-11	283.600063	0.0999999	9.8434E-05	283.600063
3.19949	-7.42E-11	283.624583	0.1	9.7806E-05	283.624583
2.99952	-9.73E-11	283.649116	0.1000005	9.718E-05	283.649116
2.79949	-1.113E-10	283.673625	0.0999999	9.6555E-05	283.673625
2.59952	-9.2E-11	283.698153	0.0999999	9.5933E-05	283.698153
2.3995	-1.076E-10	283.722665	0.1000001	9.5309E-05	283.722665
2.1995	-1.06E-10	283.747245	0.0999999	9.4685E-05	283.747245
1.99948	-1.187E-10	283.771786	0.0999999	9.4065E-05	283.771786
1.7995	-1.321E-10	283.796328	0.1	9.3446E-05	283.796328
1.59952	-1.238E-10	283.820836	0.1	9.2826E-05	283.820836
1.39951	-1.28E-10	283.845378	0.1	9.2213E-05	283.845378
1.19951	-6.83E-11	283.905064	0.1	9.1602E-05	283.905064
0.9995	-1.174E-10	283.929627	0.0999998	9.0991E-05	283.929627
0.7995	-1.31E-10	283.954156	0.0999999	9.0383E-05	283.954156
0.59952	-1.359E-10	283.978689	0.1000001	8.9778E-05	283.978689
0.3995	-1.442E-10	284.003261	0.1	8.9175E-05	284.003261
0.19949	-1.468E-10	284.027779	0.0999998	8.8575E-05	284.027779
-0.00049	-1.479E-10	284.05232	0.1000001	8.7981E-05	284.05232
-0.20052	-1.776E-10	284.076804	0.0999999	8.7394E-05	284.076804
-0.40051	-1.701E-10	284.101332	0.0999998	8.6818E-05	284.101332
-0.60048	-1.473E-10	284.129235	0.1000047	8.61712E-05	284.129235
-0.80051	-1.854E-10	284.153781	0.1000043	8.56183E-05	284.153781
-1.0005	-1.777E-10	284.178304	0.1000036	8.50777E-05	284.178304
-1.2005	-1.824E-10	284.202911	0.1000044	8.45475E-05	284.202911
-1.4005	-1.849E-10	284.22742	0.1000052	8.402E-05	284.22742
-1.6005	-1.914E-10	284.252041	0.1000048	8.34983E-05	284.252041
-1.80051	-2.019E-10	284.276591	0.1000051	8.29762E-05	284.276591
-2.0005	-2.018E-10	284.301102	0.1000055	8.24533E-05	284.301102
-2.20048	-2.14E-10	284.325648	0.1000046	8.19305E-05	284.325648
-2.40051	-1.89E-10	284.350159	0.1000047	8.14069E-05	284.350159
-2.60049	-9.64E-11	284.409547	0.1000049	8.08867E-05	284.409547
-2.80051	-1.924E-10	284.434082	0.1000058	8.03617E-05	284.434082
-3.00049	-1.951E-10	284.458611	0.1000058	7.98353E-05	284.458611
-3.20049	-1.917E-10	284.483149	0.1000066	7.93095E-05	284.483149
-3.40051	-2.044E-10	284.507665	0.1000056	7.87809E-05	284.507665
-3.60048	-2.212E-10	284.532395	0.1000053	7.82533E-05	284.532395
-3.80049	-2.238E-10	284.556899	0.100006	7.77234E-05	284.556899
-4.00047	-2.25E-10	284.581517	0.1000052	7.71944E-05	284.581517
-4.2005	-2.201E-10	284.606053	0.1000059	7.66621E-05	284.606053
-4.40051	-2.236E-10	284.630564	0.1000051	7.61273E-05	284.630564
-4.60046	-2.386E-10	284.655088	0.1000063	7.55941E-05	284.655088
-4.80049	-2.482E-10	284.679597	0.1000048	7.50572E-05	284.679597
-5.00047	-2.33E-10	284.70413	0.1000066	7.45205E-05	284.70413
-5.2005	-2.396E-10	284.728652	0.1000058	7.39808E-05	284.728652
-5.4005	-3.873E-10	284.75324	0.1000057	7.34397E-05	284.75324
-5.60049	-2.953E-10	284.777781	0.1000058	7.28982E-05	284.777781
-5.8005	-2.574E-10	284.802309	0.1000057	7.23535E-05	284.802309
-6.00049	-2.631E-10	284.826833	0.1000056	7.18069E-05	284.826833
-6.2005	-2.821E-10	284.851369	0.1000046	7.12588E-05	284.851369
-6.40048	-2.113E-10	284.908183	0.1000063	7.07126E-05	284.908183
-6.60047	-2.709E-10	284.932712	0.1000061	7.01607E-05	284.932712
-6.80049	-2.496E-10	284.957268	0.1000064	6.96077E-05	284.957268
-7.00052	-2.653E-10	284.981802	0.1000056	6.90513E-05	284.981802
-7.2005	-2.753E-10	285.006366	0.1000059	6.84936E-05	285.006366
-7.40046	-2.836E-10	285.030883	0.1000067	6.79351E-05	285.030883
-7.60048	-2.741E-10	285.055412	0.100006	6.73745E-05	285.055412
-7.80049	-2.849E-10	285.079935	0.1000056	6.68115E-05	285.079935
-8.0005	-2.919E-10	285.104474	0.1000055	6.62466E-05	285.104474
-8.20049	-2.791E-10	285.128981	0.1000046	6.56795E-05	285.128981
-8.40049	-2.919E-10	285.153509	0.1000064	6.51119E-05	285.153509
-8.60047	-3.164E-10	285.178026	0.1000057	6.45405E-05	285.178026
-8.80048	-3.01E-10	285.202559	0.1000073	6.39691E-05	285.202559
-9.00049	-2.863E-10	285.227076	0.1000057	6.33942E-05	285.227076
-9.20049	-3.087E-10	285.251696	0.1000052	6.28188E-05	285.251696
-9.40046	-3.226E-10	285.276235	0.1000058	6.22393E-05	285.276235
-9.60053	-2.977E-10	285.300844	0.100005	6.16613E-05	285.300844
-9.80048	-3.149E-10	285.32537	0.1000056	6.10821E-05	285.32537
-10.00049	-3.187E-10	285.349906	0.1000068	6.05014E-05	285.349906
-10.20047	-2.412E-10	285.409847	0.1000082	5.99269E-05	285.409847
-10.40047	-2.979E-10	285.43438	0.1000066	5.93404E-05	285.43438
-10.60047	-3.212E-10	285.45892	0.1000063	5.87528E-05	285.45892
-10.8005	-3.128E-10	285.483441	0.1000055	5.81642E-05	285.483441
-11.00046	-2.941E-10	285.508016	0.1000064	5.7575E-05	285.508016
-11.20049	-3.371E-10	285.53253	0.1000053	5.69814E-05	285.53253
-11.4005	-3.364E-10	285.55706	0.1000062	5.63874E-05	285.55706
-11.60049	-3.227E-10	285.581661	0.1000071	5.57916E-05	285.581661
-11.80049	-3.218E-10	285.606197	0.1000066	5.51931E-05	285.606197
-12.00049	-3.444E-10	285.630715	0.1000055	5.45937E-05	285.630715
#scan	iMeasureCycle=3	iMux=0	time=319.846	N=222	LocalTime=22/06/2023 02:02:09
#VGate(V)	IGate(A)	time(s)	VDrain(V)	IDrain(A)	time(s)
-12.00048	-5.46E-11	319.85352	0.1000061	5.47099E-05	319.85352
-11.80051	-9.7E-12	319.878387	0.1000056	5.53125E-05	319.878387
-11.60049	-1.18E-11	319.90439	0.1000052	5.59129E-05	319.90439
-11.40051	2.29E-11	319.928937	0.100007	5.65113E-05	319.928937
-11.20048	4.82E-11	319.953463	0.1000066	5.71085E-05	319.953463
-11.00048	6.11E-11	319.978057	0.1000058	5.77033E-05	319.978057
-10.80047	6.77E-11	320.002576	0.1000056	5.82947E-05	320.002576
-10.60048	6.88E-11	320.027094	0.1000063	5.88873E-05	320.027094
-10.4005	9.62E-11	320.051623	0.1000064	5.94771E-05	320.051623
-10.2005	9.84E-11	320.076133	0.1000062	6.00644E-05	320.076133
-10.00046	2.17E-10	320.10074	0.1000072	6.06511E-05	320.10074
-9.80051	1.4E-10	320.125272	0.1000067	6.12353E-05	320.125272
-9.60051	1.254E-10	320.149791	0.1000059	6.18168E-05	320.149791
-9.40049	1.27E-10	320.174335	0.1000064	6.23992E-05	320.174335
-9.20049	1.372E-10	320.198843	0.1000059	6.29782E-05	320.198843
-9.00048	1.423E-10	320.223367	0.1000064	6.35534E-05	320.223367
-8.80046	1.354E-10	320.247881	0.1000058	6.41253E-05	320.247881
-8.6005	1.428E-10	320.272431	0.1000065	6.46944E-05	320.272431
-8.40051	1.624E-10	320.29711	0.1000064	6.5262E-05	320.29711
-8.20046	1.64E-10	320.321677	0.1000071	6.58277E-05	320.321677
-8.00048	-3.95E-11	320.346194	0.1000062	6.63905E-05	320.346194
-7.8005	1.339E-10	320.370713	0.1000048	6.69524E-05	320.370713
-7.6005	1.157E-10	320.417202	0.1000068	6.75115E-05	320.417202
-7.4005	1.59E-10	320.441743	0.1000047	6.807E-05	320.441743
-7.20049	1.631E-10	320.466268	0.1000048	6.86274E-05	320.466268
-7.00048	1.66E-10	320.490798	0.1000062	6.91836E-05	320.490798
-6.8005	1.827E-10	320.515356	0.1000055	6.9738E-05	320.515356
-6.6005	1.965E-10	320.53988	0.1000071	7.02908E-05	320.53988
-6.40049	1.825E-10	320.564396	0.1000055	7.08403E-05	320.564396
-6.20049	1.924E-10	320.588917	0.100006	7.13897E-05	320.588917
-6.00049	2.087E-10	320.613433	0.1000053	7.19366E-05	320.613433
-5.80049	2.072E-10	320.638058	0.1000046	7.24817E-05	320.638058
-5.6005	2.012E-10	320.662572	0.1000059	7.30248E-05	320.662572
-5.40049	2.175E-10	320.687095	0.1000061	7.3569E-05	320.687095
-5.2005	2.219E-10	320.711597	0.100005	7.41085E-05	320.711597
-5.00049	2.192E-10	320.736114	0.1000055	7.46465E-05	320.736114
-4.80048	2.126E-10	320.760635	0.100005	7.51838E-05	320.760635
-4.60047	2.388E-10	320.78515	0.1000053	7.57191E-05	320.78515
-4.4005	2.325E-10	320.809668	0.1000047	7.6254E-05	320.809668
-4.20051	2.253E-10	320.834223	0.1000056	7.67875E-05	320.834223
-4.00047	2.546E-10	320.858761	0.1000054	7.7319E-05	320.858761
-3.80052	2.011E-10	320.918747	0.1000054	7.78463E-05	320.918747
-3.6005	2.183E-10	320.943378	0.1000056	7.83772E-05	320.943378
-3.40052	2.268E-10	320.96794	0.1000052	7.89053E-05	320.96794
-3.2005	2.492E-10	320.992476	0.1000058	7.9432E-05	320.992476
-3.00048	2.515E-10	321.017053	0.1000046	7.99596E-05	321.017053
-2.8005	2.361E-10	321.041551	0.1000039	8.04859E-05	321.041551
-2.60049	2.695E-10	321.06607	0.100005	8.10095E-05	321.06607
-2.4005	2.627E-10	321.090574	0.100006	8.15361E-05	321.090574
-2.2005	2.604E-10	321.115085	0.1000051	8.20594E-05	321.115085
-2.00049	2.761E-10	321.139595	0.1000061	8.25835E-05	321.139595
-1.80052	2.734E-10	321.164116	0.1000044	8.31061E-05	321.164116
-1.6005	2.71E-10	321.188645	0.1000048	8.36289E-05	321.188645
-1.40052	2.751E-10	321.213162	0.1000048	8.4155E-05	321.213162
-1.2005	2.984E-10	321.237668	0.1000049	8.46841E-05	321.237668
-1.00051	2.902E-10	321.262188	0.1000057	8.52214E-05	321.262188
-0.80051	2.813E-10	321.286714	0.1000054	8.57698E-05	321.286714
-0.60049	2.988E-10	321.311344	0.1000042	8.63279E-05	321.311344
-0.40051	3.038E-10	321.335913	0.100005	8.68992E-05	321.335913
-0.20052	2.968E-10	321.360461	0.1000038	8.74797E-05	321.360461
-0.00051	2.486E-10	321.420369	0.1000033	8.80621E-05	321.420369
0.19952	2.89E-10	321.444955	0.1000047	8.86604E-05	321.444955
0.3995	2.94E-10	321.46947	0.1000037	8.9261E-05	321.46947
0.5995	2.907E-10	321.493979	0.1000051	8.98647E-05	321.493979
0.79949	4.493E-10	321.518549	0.1000052	9.04699E-05	321.518549
0.99951	3.286E-10	321.543068	0.100004	9.10762E-05	321.543068
1.19951	3.084E-10	321.567576	0.1000044	9.16848E-05	321.567576
1.39951	3.429E-10	321.592093	0.1000047	9.22981E-05	321.592093
1.5995	3.447E-10	321.616601	0.1000052	9.2912E-05	321.616601
1.79947	3.331E-10	321.641205	0.1000056	9.35272E-05	321.641205
1.9995	3.325E-10	321.665685	0.1000042	9.41448E-05	321.665685
2.1995	3.464E-10	321.690201	0.1000058	9.47656E-05	321.690201
2.39948	3.51E-10	321.714721	0.1000038	9.53856E-05	321.714721
2.59951	3.501E-10	321.739236	0.1000047	9.6007E-05	321.739236
2.79949	3.468E-10	321.763769	0.1000045	9.66304E-05	321.763769
2.9995	3.493E-10	321.788281	0.1000042	9.72534E-05	321.788281
3.19951	3.581E-10	321.812811	0.1000045	9.78745E-05	321.812811
3.39949	2.985E-10	321.837362	0.1000035	9.84973E-05	321.837362
3.59949	3.59E-10	321.861898	0.1000032	9.91197E-05	321.861898
3.79949	3.001E-10	321.921919	0.1000044	9.97357E-05	321.921919
3.9995	3.273E-10	321.946439	0.1000041	0.000100357	321.946439
4.1995	3.546E-10	321.971026	0.1000028	0.0001009736	321.971026
4.39949	3.578E-10	321.995544	0.1000032	0.000101591	321.995544
4.5995	3.509E-10	322.020133	0.1000044	0.0001022058	322.020133
4.7995	3.721E-10	322.044653	0.1000033	0.0001028166	322.044653
4.99949	3.776E-10	322.06928	0.1000026	0.0001034244	322.06928
5.19948	3.686E-10	322.09389	0.1000042	0.0001040316	322.09389
5.39946	3.765E-10	322.118432	0.1000033	0.0001046312	322.118432
5.59951	3.409E-10	322.148	0.1	0.000105309	322.148
5.79947	3.686E-10	322.172548	0.0999998	0.000105902	322.172548
5.99949	4.035E-10	322.197065	0.1	0.000106492	322.197065
6.19949	3.796E-10	322.22157	0.0999999	0.00010708	322.22157
6.39951	3.88E-10	322.246087	0.1	0.000107663	322.246087
6.59947	3.954E-10	322.270603	0.1000002	0.000108243	322.270603
6.7995	4.013E-10	322.295124	0.1000001	0.000108821	322.295124
6.99948	4.076E-10	322.319754	0.0999999	0.000109391	322.319754
7.19948	3.967E-10	322.344275	0.0999999	0.000109959	322.344275
7.3995	3.99E-10	322.368805	0.1	0.000110526	322.368805
7.59948	3.282E-10	322.426285	0.0999999	0.000111083	322.426285
7.79948	4.024E-10	322.450828	0.0999998	0.000111643	322.450828
7.99947	4.039E-10	322.475359	0.0999999	0.000112201	322.475359
8.19949	3.991E-10	322.499904	0.1000002	0.00011275	322.499904
8.3995	4.161E-10	322.524468	0.1	0.0001133	322.524468
8.5995	4.126E-10	322.548977	0.1000004	0.000113844	322.548977
8.79949	4.251E-10	322.573491	0.1	0.000114385	322.573491
8.99949	4.297E-10	322.597991	0.1000001	0.000114923	322.597991
9.19949	4.303E-10	322.622497	0.1000002	0.000115459	322.622497
9.3995	4.265E-10	322.647093	0.1000001	0.000115995	322.647093
9.59949	4.204E-10	322.671649	0.1000001	0.000116526	322.671649
9.79949	4.451E-10	322.696179	0.1000002	0.000117056	322.696179
9.99948	4.548E-10	322.720688	0.0999996	0.000117583	322.720688
9.9995	3.651E-10	322.744041	0.0999998	0.000117583	322.744041
9.79951	2.875E-10	322.768563	0.1000002	0.000117058	322.768563
9.59949	2.618E-10	322.793095	0.1	0.000116529	322.793095
9.39949	2.209E-10	322.817613	0.0999998	0.000116	322.817613
9.19949	1.912E-10	322.842159	0.0999998	0.000115464	322.842159
8.99949	1.821E-10	322.866677	0.1000001	0.000114928	322.866677
8.79953	3.573E-10	322.924965	0.1	0.000114385	322.924965
8.59953	1.611E-10	322.949489	0.1000001	0.000113835	322.949489
8.3995	1.499E-10	322.974077	0.0999999	0.000113284	322.974077
8.1995	1.285E-10	322.998592	0.0999999	0.000112726	322.998592
7.99949	9.44E-11	323.023183	0.0999999	0.000112165	323.023183
7.79951	9.18E-11	323.047687	0.1000002	0.000111601	323.047687
7.59951	7.9E-11	323.072213	0.1000002	0.000111033	323.072213
7.39949	6.82E-11	323.096728	0.1	0.000110465	323.096728
7.19947	6.02E-11	323.121253	0.0999997	0.000109892	323.121253
6.9995	4.83E-11	323.145768	0.0999999	0.000109316	323.145768
6.79953	3.6E-11	323.170306	0.1000001	0.000108736	323.170306
6.59951	-1.06E-11	323.194821	0.1000001	0.000108155	323.194821
6.39949	-4.5E-12	323.219345	0.0999998	0.000107568	323.219345
6.19952	4.8E-12	323.24385	0.1	0.000106979	323.24385
5.9995	-1.58E-11	323.26847	0.1	0.000106386	323.26847
5.7995	8E-13	323.29299	0.1	0.000105788	323.29299
5.5995	3.4E-12	323.317609	0.0999998	0.000105191	323.317609
5.3995	-3.1E-11	323.34216	0.1	0.000104586	323.34216
5.19949	-4.72E-11	323.366722	0.1	0.00010398	323.366722
4.99949	1.8E-11	323.427224	0.0999999	0.000103371	323.427224
4.79951	-2.21E-11	323.451755	0.1	0.000102758	323.451755
4.59949	-4.14E-11	323.476306	0.0999996	0.000102144	323.476306
4.39949	-3.76E-11	323.500851	0.1	0.000101525	323.500851
4.19951	-5.19E-11	323.525419	0.1	0.000100906	323.525419
3.99949	-7.37E-11	323.549951	0.1	0.000100283	323.549951
3.7995	-5.89E-11	323.574451	0.1000002	9.9661E-05	323.574451
3.59948	-6.02E-11	323.598991	0.0999999	9.9037E-05	323.598991
3.39951	-8.52E-11	323.623503	0.0999999	9.8411E-05	323.623503
3.1995	-9.81E-11	323.648121	0.1	9.7784E-05	323.648121
2.99949	-7.71E-11	323.672743	0.1	9.7158E-05	323.672743
2.79949	-9.19E-11	323.697268	0.1	9.6533E-05	323.697268
2.59951	-1.074E-10	323.72179	0.1000001	9.5909E-05	323.72179
2.39949	-1.127E-10	323.746301	0.1	9.5284E-05	323.746301
2.19952	-9.51E-11	323.770849	0.1	9.4662E-05	323.770849
1.99948	-1.2E-10	323.795371	0.1	9.4039E-05	323.795371
1.79948	-1.347E-10	323.819916	0.0999998	9.3421E-05	323.819916
1.5995	-1.137E-10	323.844482	0.1	9.2805E-05	323.844482
1.39951	-1.365E-10	323.869021	0.1000002	9.2189E-05	323.869021
1.19948	-9.87E-11	323.92846	0.1	9.1581E-05	323.92846
0.9995	-1.112E-10	323.952983	0.0999999	9.0969E-05	323.952983
0.79949	-1.173E-10	323.977684	0.1000001	9.0361E-05	323.977684
0.5995	-1.446E-10	324.002223	0.1000001	8.9754E-05	324.002223
0.39951	-1.509E-10	324.026789	0.0999999	8.9153E-05	324.026789
0.19948	-1.429E-10	324.051319	0.1	8.8552E-05	324.051319
-0.00051	-1.181E-10	324.079159	0.1000048	8.7875E-05	324.079159
-0.20049	-1.546E-10	324.103747	0.100004	8.72891E-05	324.103747
-0.40049	-1.809E-10	324.128275	0.1000044	8.67132E-05	324.128275
-0.60047	-1.652E-10	324.152785	0.1000044	8.6146E-05	324.152785
-0.80051	-1.618E-10	324.177317	0.1000048	8.55951E-05	324.177317
-1.0005	-1.869E-10	324.20183	0.1000051	8.5056E-05	324.20183
-1.20049	-1.96E-10	324.226363	0.1000046	8.45225E-05	324.226363
-1.4005	-1.788E-10	324.250873	0.1000043	8.39976E-05	324.250873
-1.60048	-1.899E-10	324.275485	0.1000047	8.3475E-05	324.275485
-1.80048	-1.987E-10	324.300006	0.1000046	8.29528E-05	324.300006
-2.00049	-8.25E-11	324.324639	0.1000053	8.24308E-05	324.324639
-2.20049	-1.723E-10	324.349179	0.1000053	8.19089E-05	324.349179
-2.4005	-1.982E-10	324.37369	0.1000046	8.13856E-05	324.37369
-2.60048	-1.303E-10	324.43302	0.1000061	8.08643E-05	324.43302
-2.8005	-1.71E-10	324.458121	0.1000054	8.03393E-05	324.458121
-3.00047	-2.065E-10	324.482709	0.1000049	7.98121E-05	324.482709
-3.20051	-2.174E-10	324.50724	0.1000059	7.9287E-05	324.50724
-3.40049	-2.061E-10	324.531824	0.1000055	7.87598E-05	324.531824
-3.60047	-2.203E-10	324.556346	0.1000048	7.82292E-05	324.556346
-3.80049	-2.266E-10	324.580873	0.1000049	7.77004E-05	324.580873
-4.00048	-3.965E-10	324.605405	0.1000051	7.71695E-05	324.605405
-4.20049	-2.433E-10	324.62994	0.1000052	7.66377E-05	324.62994
-4.40049	-2.478E-10	324.654531	0.1000054	7.6105E-05	324.654531
-4.60049	-2.49E-10	324.679064	0.1000055	7.5571E-05	324.679064
-4.80049	-2.424E-10	324.703605	0.1000048	7.50344E-05	324.703605
-5.00049	-2.611E-10	324.728122	0.1000049	7.44961E-05	324.728122
-5.2005	-2.699E-10	324.752629	0.1000043	7.39577E-05	324.752629
-5.40051	-2.369E-10	324.777148	0.1000061	7.34184E-05	324.777148
-5.60049	-2.63E-10	324.801664	0.1000056	7.28755E-05	324.801664
-5.80049	-2.775E-10	324.826199	0.1000057	7.23307E-05	324.826199
-6.00048	-2.726E-10	324.850741	0.1000065	7.17847E-05	324.850741
-6.20048	-2.658E-10	324.875256	0.1000053	7.12362E-05	324.875256
-6.40051	-2.137E-10	324.931925	0.1000056	7.06898E-05	324.931925
-6.60052	-2.532E-10	324.956447	0.1000064	7.01385E-05	324.956447
-6.80048	-2.636E-10	324.981059	0.1000051	6.95845E-05	324.981059
-7.00048	-2.819E-10	325.005583	0.1000064	6.90288E-05	325.005583
-7.20049	-2.629E-10	325.030165	0.1000066	6.84705E-05	325.030165
-7.40048	-2.785E-10	325.054679	0.1000056	6.7911E-05	325.054679
-7.60049	-2.86E-10	325.079208	0.1000057	6.735E-05	325.079208
-7.80048	-2.823E-10	325.10372	0.1000048	6.67869E-05	325.10372
-8.00048	-2.859E-10	325.128244	0.1000061	6.62224E-05	325.128244
-8.20049	-2.997E-10	325.152751	0.1000053	6.56557E-05	325.152751
-8.40049	-3.024E-10	325.177284	0.100006	6.50875E-05	325.177284
-8.6005	-2.904E-10	325.201796	0.1000058	6.45161E-05	325.201796
-8.80049	-3.048E-10	325.22633	0.1000055	6.39441E-05	325.22633
-9.00049	-3.127E-10	325.250853	0.1000066	6.33699E-05	325.250853
-9.2005	-3.107E-10	325.275398	0.1000058	6.27933E-05	325.275398
-9.4005	-3.079E-10	325.299915	0.1000049	6.22153E-05	325.299915
-9.60049	-3.171E-10	325.324518	0.1000065	6.1636E-05	325.324518
-9.80048	-3.398E-10	325.349074	0.1000059	6.10573E-05	325.349074
-10.00047	-3.054E-10	325.373619	0.1000054	6.04755E-05	325.373619
-10.20047	-2.54E-10	325.433676	0.1000059	5.99011E-05	325.433676
-10.40048	-3.014E-10	325.45819	0.1000069	5.93165E-05	325.45819
-10.60048	-3.026E-10	325.482726	0.1000049	5.87286E-05	325.482726
-10.80049	-3.159E-10	325.507257	0.1000054	5.81396E-05	325.507257
-11.00049	-3.291E-10	325.531837	0.1000048	5.75492E-05	325.531837
-11.20048	-3.266E-10	325.556348	0.1000056	5.69562E-05	325.556348
-11.40045	-3.114E-10	325.580877	0.1000065	5.63624E-05	325.580877
-11.60048	-3.458E-10	325.605344	0.1000055	5.57657E-05	325.605344
-11.80048	-3.5E-10	325.629858	0.1000069	5.51682E-05	325.629858
-12.00047	-3.281E-10	325.654459	0.1000061	5.45684E-05	325.654459
