#scan	iMeasureCycle=1	iMux=0	time=0.038	N=222	LocalTime=22/06/2023 10:02:52
#VGate(V)	IGate(A)	time(s)	VDrain(V)	IDrain(A)	time(s)
-12.00048	-3.1462E-09	0.063844	0.100006	7.07218E-05	0.063844
-11.80051	-3.0055E-09	0.088722	0.100005	7.12723E-05	0.088722
-11.60048	-1.2481E-09	0.113252	0.1000052	7.18215E-05	0.113252
-11.4005	-5.02E-10	0.137757	0.1000049	7.23663E-05	0.137757
-11.2005	-3.327E-10	0.162287	0.1000056	7.29112E-05	0.162287
-11.00048	-2.199E-10	0.18698	0.1000049	7.34503E-05	0.18698
-10.80049	-1.655E-10	0.211505	0.1000057	7.39895E-05	0.211505
-10.60051	-7.5E-11	0.23602	0.100006	7.45255E-05	0.23602
-10.40049	-8.07E-11	0.260536	0.100006	7.50589E-05	0.260536
-10.20049	-6.86E-11	0.285059	0.100006	7.5589E-05	0.285059
-10.00049	-7.6E-12	0.30958	0.1000054	7.61188E-05	0.30958
-9.8005	5.3E-12	0.334093	0.1000057	7.66467E-05	0.334093
-9.6005	1.64E-11	0.358609	0.1000059	7.71712E-05	0.358609
-9.40049	2.25E-11	0.383179	0.1000055	7.76945E-05	0.383179
-9.2005	3.34E-11	0.407706	0.1000053	7.82151E-05	0.407706
-9.0005	6.06E-11	0.43225	0.1000058	7.87291E-05	0.43225
-8.80049	7.2E-11	0.456757	0.1000055	7.92431E-05	0.456757
-8.60051	7.27E-11	0.481306	0.1000054	7.97517E-05	0.481306
-8.4005	7.79E-11	0.505834	0.1000059	8.02605E-05	0.505834
-8.20048	7.91E-11	0.530376	0.1000054	8.07638E-05	0.530376
-8.0005	1.032E-10	0.554881	0.1000055	8.12682E-05	0.554881
-7.8005	1.151E-10	0.579423	0.1000049	8.17681E-05	0.579423
-7.6005	6.34E-11	0.627389	0.1000049	8.22656E-05	0.627389
-7.40049	1.181E-10	0.651909	0.1000057	8.27664E-05	0.651909
-7.20049	1.196E-10	0.676547	0.1000047	8.32613E-05	0.676547
-7.0005	1.158E-10	0.701336	0.1000048	8.37566E-05	0.701336
-6.80048	1.292E-10	0.725941	0.1000049	8.42508E-05	0.725941
-6.60049	1.432E-10	0.750457	0.1000054	8.47428E-05	0.750457
-6.4005	1.583E-10	0.774973	0.1000047	8.52316E-05	0.774973
-6.20049	1.585E-10	0.799485	0.1000047	8.5721E-05	0.799485
-6.00049	1.699E-10	0.823991	0.1000048	8.62082E-05	0.823991
-5.80049	1.618E-10	0.848504	0.1000057	8.66935E-05	0.848504
-5.6005	1.681E-10	0.873031	0.1000052	8.71777E-05	0.873031
-5.40051	2.043E-10	0.897552	0.1000046	8.76597E-05	0.897552
-5.20049	1.808E-10	0.922062	0.1000049	8.81411E-05	0.922062
-5.00051	1.628E-10	0.946569	0.1000048	8.86193E-05	0.946569
-4.80049	2.445E-10	0.971084	0.1000063	8.90985E-05	0.971084
-4.60049	2.291E-10	0.995691	0.1000058	8.95762E-05	0.995691
-4.40048	2.087E-10	1.020244	0.1000054	9.00501E-05	1.020244
-4.20048	2.033E-10	1.04485	0.1000044	9.05248E-05	1.04485
-4.0005	3.4E-12	1.069366	0.1000044	9.09984E-05	1.069366
-3.80049	1.558E-10	1.128832	0.1000041	9.14677E-05	1.128832
-3.60049	1.905E-10	1.153358	0.1000045	9.19392E-05	1.153358
-3.40051	2.281E-10	1.177966	0.1000044	9.24091E-05	1.177966
-3.20049	2.084E-10	1.202515	0.1000044	9.28781E-05	1.202515
-3.0005	2.076E-10	1.227101	0.1000042	9.33463E-05	1.227101
-2.80049	2.353E-10	1.251622	0.1000046	9.3813E-05	1.251622
-2.60049	2.482E-10	1.276147	0.1000042	9.4279E-05	1.276147
-2.40051	2.429E-10	1.300666	0.1000043	9.47437E-05	1.300666
-2.2005	2.346E-10	1.325199	0.100004	9.52072E-05	1.325199
-2.00052	2.496E-10	1.349717	0.1000041	9.56709E-05	1.349717
-1.8005	2.632E-10	1.37431	0.100004	9.6137E-05	1.37431
-1.6005	2.527E-10	1.398823	0.1000045	9.66053E-05	1.398823
-1.4005	2.715E-10	1.423347	0.1000041	9.70756E-05	1.423347
-1.20051	2.605E-10	1.447876	0.1000045	9.75562E-05	1.447876
-1.0005	2.68E-10	1.472405	0.100004	9.8045E-05	1.472405
-0.80051	2.959E-10	1.49693	0.1000041	9.85438E-05	1.49693
-0.60049	2.894E-10	1.521506	0.1000034	9.90501E-05	1.521506
-0.40049	2.643E-10	1.546028	0.1000043	9.95653E-05	1.546028
-0.2005	2.89E-10	1.57057	0.100004	0.0001000845	1.57057
-0.0005	2.556E-10	1.630438	0.1000035	0.0001006003	1.630438
0.19951	2.794E-10	1.654953	0.100004	0.0001011287	1.654953
0.39949	2.791E-10	1.679574	0.100004	0.000101657	1.679574
0.59951	2.894E-10	1.704363	0.1000037	0.0001021877	1.704363
0.79951	3.007E-10	1.728938	0.1000044	0.0001027196	1.728938
0.9995	3.128E-10	1.75345	0.1000043	0.0001032528	1.75345
1.1995	3.09E-10	1.777969	0.1000034	0.0001037868	1.777969
1.39951	3.122E-10	1.80249	0.1000034	0.0001043214	1.80249
1.5995	2.627E-10	1.849484	0.0999999	0.000104934	1.849484
1.7995	3.097E-10	1.874006	0.1	0.000105473	1.874006
1.9995	3.262E-10	1.898531	0.1000002	0.000106014	1.898531
2.1995	3.074E-10	1.923057	0.1	0.000106554	1.923057
2.3995	3.114E-10	1.947566	0.1	0.000107096	1.947566
2.59951	3.365E-10	1.972113	0.1	0.00010764	1.972113
2.79949	3.384E-10	1.996621	0.1000001	0.00010818	1.996621
2.99949	3.433E-10	2.021163	0.1	0.000108723	2.021163
3.1995	3.473E-10	2.045747	0.1000001	0.000109268	2.045747
3.3995	3.397E-10	2.070258	0.1	0.000109811	2.070258
3.5995	2.791E-10	2.133648	0.1	0.000110346	2.133648
3.79949	3.323E-10	2.158216	0.0999999	0.000110888	2.158216
3.99949	3.395E-10	2.182687	0.1	0.000111431	2.182687
4.19949	3.315E-10	2.207222	0.0999999	0.000111972	2.207222
4.39948	3.503E-10	2.231791	0.0999997	0.00011251	2.231791
4.5995	3.699E-10	2.256334	0.0999998	0.000113046	2.256334
4.7995	3.688E-10	2.280854	0.1	0.000113581	2.280854
4.9995	3.58E-10	2.30539	0.0999998	0.000114112	2.30539
5.19949	3.587E-10	2.329897	0.0999997	0.000114642	2.329897
5.39949	3.943E-10	2.354432	0.1	0.000115166	2.354432
5.5995	4.599E-10	2.379012	0.0999999	0.000115693	2.379012
5.79951	3.866E-10	2.403538	0.1	0.000116214	2.403538
5.9995	3.91E-10	2.428049	0.1000001	0.000116731	2.428049
6.19949	4.086E-10	2.452569	0.0999999	0.000117248	2.452569
6.39949	4.111E-10	2.477092	0.0999999	0.000117759	2.477092
6.59951	3.983E-10	2.501618	0.0999999	0.000118271	2.501618
6.79951	3.984E-10	2.52614	0.1000001	0.000118776	2.52614
6.99949	4.141E-10	2.550654	0.1000001	0.000119282	2.550654
7.19949	4.091E-10	2.575171	0.0999998	0.000119784	2.575171
7.39949	3.69E-10	2.633975	0.1000001	0.000120277	2.633975
7.59951	4.049E-10	2.658515	0.1000001	0.000120774	2.658515
7.7995	3.926E-10	2.683198	0.1000001	0.000121269	2.683198
7.9995	3.975E-10	2.70774	0.1000001	0.000121758	2.70774
8.19949	4.131E-10	2.732301	0.0999998	0.000122248	2.732301
8.3995	4.234E-10	2.75685	0.1	0.000122731	2.75685
8.59949	4.174E-10	2.781356	0.1000001	0.000123213	2.781356
8.79951	4.146E-10	2.805894	0.1000001	0.000123694	2.805894
8.99949	4.285E-10	2.830409	0.1000001	0.000124171	2.830409
9.19949	4.277E-10	2.854944	0.0999999	0.000124647	2.854944
9.39949	4.461E-10	2.87946	0.1	0.000125123	2.87946
9.59949	2.941E-10	2.903979	0.1	0.000125597	2.903979
9.7995	3.976E-10	2.928508	0.1000001	0.000126065	2.928508
9.9995	4.446E-10	2.953029	0.1000001	0.000126537	2.953029
9.99949	3.952E-10	2.976399	0.0999999	0.000126536	2.976399
9.79951	2.885E-10	3.000999	0.1000001	0.000126069	3.000999
9.59951	2.57E-10	3.025533	0.1	0.000125601	3.025533
9.3995	2.383E-10	3.050105	0.1000001	0.000125128	3.050105
9.1995	2.04E-10	3.074616	0.0999999	0.000124655	3.074616
8.9995	2.141E-10	3.135576	0.1	0.000124177	3.135576
8.79952	1.884E-10	3.160104	0.1	0.000123694	3.160104
8.5995	1.52E-10	3.184779	0.0999999	0.000123206	3.184779
8.3995	1.126E-10	3.209316	0.1000001	0.000122716	3.209316
8.1995	1.196E-10	3.233874	0.1000001	0.000122222	3.233874
7.99949	1.259E-10	3.258397	0.1	0.000121725	3.258397
7.79951	9.19E-11	3.282911	0.1	0.000121226	3.282911
7.59951	6.04E-11	3.307501	0.1	0.000120724	3.307501
7.3995	8.08E-11	3.332001	0.1000001	0.00012022	3.332001
7.1995	8.43E-11	3.356516	0.1000001	0.000119713	3.356516
6.9995	4.89E-11	3.381096	0.1000001	0.000119204	3.381096
6.79951	3.71E-11	3.405632	0.0999999	0.000118693	3.405632
6.59951	4.88E-11	3.430166	0.1000001	0.00011818	3.430166
6.39951	2.9E-11	3.454675	0.0999999	0.000117665	3.454675
6.19949	2.85E-11	3.479225	0.1	0.000117147	3.479225
5.99949	1.24E-11	3.503731	0.1000001	0.000116624	3.503731
5.79951	-1.56E-11	3.52829	0.1000002	0.000116101	3.52829
5.59951	-5.8E-12	3.552806	0.1000001	0.000115573	3.552806
5.3995	4.3E-12	3.577342	0.0999999	0.000115043	3.577342
5.1995	2.08E-11	3.632668	0.0999996	0.000114512	3.632668
4.99951	1.54E-11	3.657175	0.1000002	0.000113978	3.657175
4.79949	-2.3E-11	3.681705	0.0999998	0.00011344	3.681705
4.5995	-4.18E-11	3.706323	0.0999998	0.0001129	3.706323
4.3995	-3.94E-11	3.730887	0.1000001	0.000112361	3.730887
4.19949	-3.58E-11	3.755405	0.0999998	0.000111819	3.755405
3.9995	8.99E-11	3.779928	0.1000003	0.000111275	3.779928
3.7995	-5.06E-11	3.804428	0.0999999	0.000110729	3.804428
3.5995	-5.85E-11	3.828956	0.0999999	0.000110185	3.828956
3.39951	-6.09E-11	3.853472	0.0999999	0.000109639	3.853472
3.1995	-6.1E-11	3.877979	0.0999998	0.000109091	3.877979
2.9995	-7.36E-11	3.902496	0.1	0.000108545	3.902496
2.7995	-1.005E-10	3.927117	0.0999998	0.000107998	3.927117
2.59951	-9.42E-11	3.951659	0.0999999	0.000107451	3.951659
2.39951	-9.47E-11	3.97618	0.1	0.000106907	3.97618
2.19951	-9.82E-11	4.000719	0.0999999	0.000106365	4.000719
1.9995	-1.117E-10	4.025275	0.0999999	0.00010582	4.025275
1.79951	-1.253E-10	4.049862	0.1000001	0.000105276	4.049862
1.59952	-1.116E-10	4.074379	0.1	0.000104735	4.074379
1.39951	-4.82E-11	4.136533	0.0999998	0.000104199	4.136533
1.19952	-9.84E-11	4.161107	0.1000002	0.00010366	4.161107
0.99951	-1.3E-10	4.18562	0.1000002	0.000103125	4.18562
0.79951	-1.133E-10	4.210239	0.1000001	0.000102589	4.210239
0.59952	-1.304E-10	4.234812	0.0999999	0.000102056	4.234812
0.39951	-1.408E-10	4.259336	0.0999999	0.000101526	4.259336
0.19951	-1.532E-10	4.28384	0.1000001	0.000100997	4.28384
-0.00049	-1.661E-10	4.308361	0.0999999	0.000100466	4.308361
-0.20049	-1.658E-10	4.332869	0.1000001	9.9944E-05	4.332869
-0.40048	-2.764E-10	4.3574	0.0999999	9.9425E-05	4.3574
-0.60048	-1.827E-10	4.381973	0.1000001	9.8912E-05	4.381973
-0.8005	-1.972E-10	4.406498	0.0999999	9.841E-05	4.406498
-1.00049	-1.982E-10	4.431019	0.1000001	9.7917E-05	4.431019
-1.20048	-1.968E-10	4.455545	0.1	9.7435E-05	4.455545
-1.4005	-1.953E-10	4.480059	0.0999999	9.6958E-05	4.480059
-1.60049	-2.099E-10	4.504591	0.1	9.6489E-05	4.504591
-1.80049	-2.273E-10	4.529143	0.1	9.6024E-05	4.529143
-2.00049	-1.936E-10	4.553679	0.0999998	9.5562E-05	4.553679
-2.2005	-2.017E-10	4.57822	0.1	9.51E-05	4.57822
-2.40049	-1.437E-10	4.635315	0.0999999	9.4639E-05	4.635315
-2.60049	-1.929E-10	4.659922	0.0999997	9.4173E-05	4.659922
-2.8005	-2.133E-10	4.684464	0.1000001	9.3708E-05	4.684464
-3.00049	-2.292E-10	4.709066	0.0999997	9.324E-05	4.709066
-3.20049	-2.181E-10	4.733653	0.1	9.2773E-05	4.733653
-3.40049	-2.097E-10	4.758171	0.0999999	9.2304E-05	4.758171
-3.60048	-2.502E-10	4.782696	0.0999998	9.1834E-05	4.782696
-3.80049	-2.361E-10	4.807215	0.0999999	9.1363E-05	4.807215
-4.00049	-2.416E-10	4.831755	0.0999998	9.0892E-05	4.831755
-4.20049	-2.567E-10	4.856287	0.0999997	9.0418E-05	4.856287
-4.40049	-2.424E-10	4.880836	0.1000001	8.9944E-05	4.880836
-4.60048	-2.539E-10	4.905353	0.1	8.9468E-05	4.905353
-4.80049	-2.766E-10	4.929896	0.0999999	8.8991E-05	4.929896
-5.00049	-2.662E-10	4.954416	0.1	8.851E-05	4.954416
-5.20048	-2.58E-10	4.982279	0.1000038	8.79501E-05	4.982279
-5.40049	-2.616E-10	5.006806	0.1000045	8.74706E-05	5.006806
-5.60049	-2.706E-10	5.031335	0.100005	8.69881E-05	5.031335
-5.80048	-2.812E-10	5.055939	0.1000048	8.65033E-05	5.055939
-6.00048	-2.76E-10	5.080448	0.1000048	8.60159E-05	5.080448
-6.20048	-2.292E-10	5.144667	0.1000053	8.55304E-05	5.144667
-6.40049	-2.597E-10	5.169218	0.1000043	8.50381E-05	5.169218
-6.60048	-1.564E-10	5.193823	0.1000049	8.45476E-05	5.193823
-6.80048	-2.532E-10	5.21834	0.1000053	8.40541E-05	5.21834
-7.00048	-2.774E-10	5.242901	0.1000055	8.35586E-05	5.242901
-7.20048	-2.908E-10	5.26742	0.1000054	8.30612E-05	5.26742
-7.40048	-2.821E-10	5.291942	0.1000047	8.25613E-05	5.291942
-7.60049	-2.967E-10	5.31646	0.1000048	8.20597E-05	5.31646
-7.80048	-2.823E-10	5.340985	0.1000055	8.15564E-05	5.340985
-8.00048	-3.026E-10	5.365499	0.1000053	8.10516E-05	5.365499
-8.20049	-3.211E-10	5.390092	0.1000061	8.05451E-05	5.390092
-8.40048	-2.984E-10	5.414615	0.1000048	8.00337E-05	5.414615
-8.60048	-2.928E-10	5.439149	0.1000054	7.95221E-05	5.439149
-8.80047	-3.244E-10	5.463675	0.1000059	7.90073E-05	5.463675
-9.00047	-3.302E-10	5.488212	0.1000057	7.84916E-05	5.488212
-9.20048	-3.114E-10	5.512715	0.1000059	7.79736E-05	5.512715
-9.40049	-3.104E-10	5.53727	0.1000062	7.74546E-05	5.53727
-9.60048	-3.353E-10	5.561795	0.1000064	7.69331E-05	5.561795
-9.80047	-3.37E-10	5.586324	0.1000051	7.64113E-05	5.586324
-10.00048	-2.947E-10	5.64337	0.1000053	7.58924E-05	5.64337
-10.20048	-3.347E-10	5.6679	0.1000045	7.5367E-05	5.6679
-10.40049	-3.291E-10	5.69241	0.1000047	7.48393E-05	5.69241
-10.60049	-3.361E-10	5.716942	0.1000049	7.43081E-05	5.716942
-10.80049	-3.424E-10	5.74154	0.100005	7.37755E-05	5.74154
-11.00047	-3.415E-10	5.766063	0.1000052	7.32395E-05	5.766063
-11.20048	-3.548E-10	5.790597	0.1000055	7.27003E-05	5.790597
-11.40048	-3.524E-10	5.815105	0.1000055	7.2159E-05	5.815105
-11.60049	-3.367E-10	5.839641	0.1000053	7.1616E-05	5.839641
-11.80048	-3.604E-10	5.864155	0.1000046	7.107E-05	5.864155
-12.00048	-3.781E-10	5.888692	0.1000051	7.05222E-05	5.888692
#scan	iMeasureCycle=2	iMux=0	time=279.737	N=222	LocalTime=22/06/2023 10:07:31
#VGate(V)	IGate(A)	time(s)	VDrain(V)	IDrain(A)	time(s)
-12.00046	-9.9E-11	279.74453	0.1000055	7.06535E-05	279.74453
-11.80049	-2.31E-11	279.769403	0.1000047	7.12042E-05	279.769403
-11.60049	-2.51E-11	279.795351	0.1000054	7.17525E-05	279.795351
-11.40049	2.3E-12	279.81982	0.1000052	7.22974E-05	279.81982
-11.2005	4.36E-11	279.844368	0.1000049	7.28407E-05	279.844368
-11.00049	5.5E-11	279.86889	0.1000048	7.33816E-05	279.86889
-10.80049	5.42E-11	279.89343	0.1000049	7.39203E-05	279.89343
-10.60049	7.02E-11	279.917942	0.1000057	7.44562E-05	279.917942
-10.40049	7.49E-11	279.942484	0.1000045	7.49896E-05	279.942484
-10.20049	8.72E-11	279.967007	0.1000047	7.5521E-05	279.967007
-10.00048	1.114E-10	279.99154	0.1000045	7.60519E-05	279.99154
-9.80048	1.111E-10	280.016061	0.1000049	7.65793E-05	280.016061
-9.6005	8.27E-11	280.04066	0.1000059	7.71051E-05	280.04066
-9.40048	1.055E-10	280.065178	0.1000049	7.76292E-05	280.065178
-9.20049	1.56E-10	280.089695	0.1000045	7.81486E-05	280.089695
-9.00048	1.276E-10	280.114219	0.1000043	7.86654E-05	280.114219
-8.80049	1.227E-10	280.138733	0.1000046	7.9179E-05	280.138733
-8.6005	1.352E-10	280.163347	0.1000052	7.96902E-05	280.163347
-8.40049	1.507E-10	280.18792	0.1000047	8.01986E-05	280.18792
-8.20048	1.629E-10	280.212556	0.100004	8.07029E-05	280.212556
-8.00049	1.372E-10	280.237076	0.1000048	8.12082E-05	280.237076
-7.80049	1.439E-10	280.261629	0.1000055	8.171E-05	280.261629
-7.60049	1.217E-10	280.308207	0.1000048	8.22087E-05	280.308207
-7.40049	1.65E-10	280.33275	0.1000046	8.27075E-05	280.33275
-7.20049	1.599E-10	280.357267	0.1000045	8.32069E-05	280.357267
-7.00049	1.382E-10	280.381793	0.1000047	8.37031E-05	280.381793
-6.80049	1.985E-10	280.406361	0.1000046	8.41963E-05	280.406361
-6.60049	2.059E-10	280.430898	0.1000036	8.46882E-05	280.430898
-6.40048	1.678E-10	280.455408	0.1000047	8.51802E-05	280.455408
-6.20049	1.764E-10	280.47997	0.1000051	8.56697E-05	280.47997
-6.00051	2.024E-10	280.504479	0.1000035	8.61571E-05	280.504479
-5.80049	1.994E-10	280.529066	0.1000048	8.66431E-05	280.529066
-5.60048	2.016E-10	280.55359	0.1000051	8.71278E-05	280.55359
-5.40049	2.069E-10	280.578118	0.1000047	8.76095E-05	280.578118
-5.2005	1.963E-10	280.602616	0.1000043	8.80897E-05	280.602616
-5.0005	2.141E-10	280.627197	0.1000048	8.85708E-05	280.627197
-4.80049	2.385E-10	280.651702	0.100004	8.9049E-05	280.651702
-4.60049	2.242E-10	280.676308	0.1000046	8.95264E-05	280.676308
-4.40049	2.006E-10	280.700855	0.1000041	9.00019E-05	280.700855
-4.20051	2.225E-10	280.725378	0.1000034	9.0476E-05	280.725378
-4.00051	2.645E-10	280.749915	0.1000041	9.09481E-05	280.749915
-3.8005	1.981E-10	280.809665	0.100004	9.14182E-05	280.809665
-3.6005	2.108E-10	280.834213	0.1000039	9.18902E-05	280.834213
-3.4005	2.28E-10	280.858794	0.1000041	9.236E-05	280.858794
-3.20049	3.625E-10	280.883324	0.1000049	9.28305E-05	280.883324
-3.0005	2.486E-10	280.907889	0.1000042	9.32974E-05	280.907889
-2.8005	2.646E-10	280.932438	0.1000038	9.37648E-05	280.932438
-2.60049	2.558E-10	280.956969	0.1000048	9.42315E-05	280.956969
-2.4005	2.347E-10	280.981524	0.1000038	9.46964E-05	280.981524
-2.20049	2.649E-10	281.00604	0.1000047	9.5162E-05	281.00604
-2.0005	2.917E-10	281.030572	0.1000043	9.56267E-05	281.030572
-1.8005	2.649E-10	281.055093	0.1000044	9.6092E-05	281.055093
-1.60049	2.636E-10	281.079612	0.1000046	9.65585E-05	281.079612
-1.40051	2.736E-10	281.104137	0.1000042	9.70329E-05	281.104137
-1.20051	2.84E-10	281.128664	0.1000044	9.75121E-05	281.128664
-1.00049	2.972E-10	281.153181	0.1000048	9.80009E-05	281.153181
-0.8005	1.052E-10	281.177801	0.1000043	9.84992E-05	281.177801
-0.60049	2.685E-10	281.20239	0.1000038	9.90044E-05	281.20239
-0.4005	2.907E-10	281.226916	0.1000036	9.95194E-05	281.226916
-0.20051	2.951E-10	281.251452	0.1000031	0.0001000375	281.251452
-0.0005	2.686E-10	281.311232	0.1000032	0.0001005584	281.311232
0.1995	2.777E-10	281.335782	0.1000037	0.000101087	281.335782
0.3995	2.589E-10	281.360306	0.1000038	0.0001016175	281.360306
0.59951	2.882E-10	281.384839	0.1000042	0.0001021476	281.384839
0.7995	3.159E-10	281.409408	0.100004	0.0001026795	281.409408
0.9995	3.003E-10	281.433966	0.1000032	0.0001032143	281.433966
1.1995	2.863E-10	281.458495	0.1000035	0.0001037495	281.458495
1.39951	3.145E-10	281.483054	0.1000035	0.0001042851	281.483054
1.5995	2.668E-10	281.530054	0.1000001	0.000104899	281.530054
1.79949	3.122E-10	281.5546	0.0999999	0.000105439	281.5546
1.99949	2.949E-10	281.579125	0.1000002	0.00010598	281.579125
2.19949	3.023E-10	281.60364	0.0999998	0.00010652	281.60364
2.3995	3.348E-10	281.628224	0.1	0.000107063	281.628224
2.5995	3.38E-10	281.652746	0.1	0.000107605	281.652746
2.79949	3.273E-10	281.677354	0.0999998	0.000108151	281.677354
2.99949	3.09E-10	281.701888	0.0999999	0.000108695	281.701888
3.1995	3.413E-10	281.726361	0.1000001	0.000109238	281.726361
3.39949	3.691E-10	281.750891	0.0999999	0.000109782	281.750891
3.5995	2.781E-10	281.813994	0.0999998	0.00011032	281.813994
3.79949	2.971E-10	281.838559	0.1000001	0.000110865	281.838559
3.99948	3.196E-10	281.863147	0.1000004	0.000111408	281.863147
4.19949	3.398E-10	281.887656	0.0999999	0.000111948	281.887656
4.39949	3.545E-10	281.912299	0.1000001	0.000112486	281.912299
4.5995	3.445E-10	281.936813	0.1	0.000113026	281.936813
4.79949	3.407E-10	281.961347	0.1000001	0.00011356	281.961347
4.99948	3.512E-10	281.985881	0.0999999	0.000114094	281.985881
5.1995	3.71E-10	282.010399	0.0999999	0.000114623	282.010399
5.39949	3.747E-10	282.035003	0.1000001	0.000115151	282.035003
5.5995	3.563E-10	282.059547	0.1000001	0.000115677	282.059547
5.79949	3.528E-10	282.084052	0.0999997	0.000116199	282.084052
5.99949	3.766E-10	282.108589	0.1	0.000116719	282.108589
6.19949	4.077E-10	282.133185	0.0999996	0.000117237	282.133185
6.39949	3.66E-10	282.157895	0.1	0.00011775	282.157895
6.5995	3.447E-10	282.182461	0.0999999	0.000118261	282.182461
6.7995	4.053E-10	282.207023	0.1	0.000118767	282.207023
6.9995	4.059E-10	282.231567	0.1000001	0.000119274	282.231567
7.1995	3.822E-10	282.256076	0.1000001	0.000119775	282.256076
7.39948	3.555E-10	282.314855	0.1	0.00012027	282.314855
7.59949	3.784E-10	282.339384	0.0999999	0.000120769	282.339384
7.7995	3.746E-10	282.363948	0.1000001	0.000121265	282.363948
7.9995	4.027E-10	282.388456	0.0999999	0.000121756	282.388456
8.19949	4.199E-10	282.413034	0.0999999	0.000122244	282.413034
8.3995	3.911E-10	282.43755	0.0999999	0.000122729	282.43755
8.5995	3.884E-10	282.462071	0.0999999	0.000123212	282.462071
8.79951	4.181E-10	282.486602	0.0999998	0.000123694	282.486602
8.99949	4.265E-10	282.511116	0.1000001	0.000124171	282.511116
9.1995	4.103E-10	282.535693	0.0999997	0.000124644	282.535693
9.3995	4.14E-10	282.560257	0.1000001	0.000125123	282.560257
9.59948	1.827E-10	282.584761	0.1	0.000125598	282.584761
9.79951	4.075E-10	282.609273	0.1000001	0.000126068	282.609273
9.99949	4.268E-10	282.633779	0.1000002	0.000126537	282.633779
9.99948	3.535E-10	282.657139	0.0999999	0.000126538	282.657139
9.7995	2.509E-10	282.681746	0.1000002	0.000126071	282.681746
9.59951	2.341E-10	282.706261	0.1000001	0.000125603	282.706261
9.3995	2.296E-10	282.730769	0.0999999	0.000125128	282.730769
9.1995	1.884E-10	282.755283	0.0999998	0.000124655	282.755283
8.9995	1.884E-10	282.816139	0.0999998	0.000124178	282.816139
8.79951	1.433E-10	282.840759	0.0999999	0.000123696	282.840759
8.59952	1.421E-10	282.865333	0.1000002	0.000123211	282.865333
8.39951	1.179E-10	282.889846	0.0999999	0.000122719	282.889846
8.1995	1.113E-10	282.914433	0.1	0.000122227	282.914433
7.9995	9.22E-11	282.938951	0.0999999	0.000121728	282.938951
7.79951	6.32E-11	282.963505	0.1000002	0.000121228	282.963505
7.59951	6.09E-11	282.988028	0.1	0.000120725	282.988028
7.39951	9.05E-11	283.012566	0.1	0.000120222	283.012566
7.19951	4.3E-11	283.037068	0.1000003	0.000119718	283.037068
6.99949	1.53E-11	283.0616	0.0999999	0.000119207	283.0616
6.79952	3.26E-11	283.086119	0.1000001	0.000118698	283.086119
6.59951	3.74E-11	283.110738	0.1000001	0.000118185	283.110738
6.39951	1.4E-11	283.135255	0.1000001	0.000117669	283.135255
6.1995	-9.1E-12	283.159774	0.1	0.000117149	283.159774
5.99949	-5.7E-12	283.184367	0.0999997	0.000116628	283.184367
5.79951	2E-13	283.20894	0.0999999	0.000116103	283.20894
5.59951	-7E-13	283.23349	0.1000002	0.000115575	283.23349
5.3995	-2.72E-11	283.258005	0.0999999	0.000115045	283.258005
5.1995	1.25E-11	283.317836	0.0999998	0.000114516	283.317836
4.9995	-3.25E-11	283.342343	0.1000002	0.00011398	283.342343
4.7995	-2.34E-11	283.366891	0.1000001	0.000113444	283.366891
4.59951	-1.38E-11	283.391398	0.0999998	0.000112905	283.391398
4.39949	-4.77E-11	283.415997	0.0999997	0.000112364	283.415997
4.1995	-7.44E-11	283.440514	0.0999999	0.00011182	283.440514
3.99951	-4.64E-11	283.465059	0.0999999	0.000111277	283.465059
3.7995	-6.04E-11	283.489595	0.0999998	0.000110732	283.489595
3.59951	-7.48E-11	283.514107	0.1000001	0.000110185	283.514107
3.39951	-7.61E-11	283.53868	0.1	0.000109638	283.53868
3.19951	-9.34E-11	283.563252	0.1000002	0.000109091	283.563252
2.9995	-8.83E-11	283.587773	0.0999999	0.000108547	283.587773
2.7995	-8.95E-11	283.612234	0.1	0.000107999	283.612234
2.59952	-9.44E-11	283.636742	0.0999999	0.000107453	283.636742
2.39951	-1.109E-10	283.661241	0.1000001	0.000106908	283.661241
2.19952	5.64E-11	283.68586	0.1000002	0.000106363	283.68586
1.99951	-7.81E-11	283.710379	0.1000001	0.00010582	283.710379
1.79951	-9.86E-11	283.734913	0.1000002	0.000105276	283.734913
1.59951	-1.212E-10	283.759431	0.0999999	0.000104737	283.759431
1.39952	-6.96E-11	283.815182	0.1000003	0.000104197	283.815182
1.19952	-1.26E-10	283.839698	0.1	0.000103659	283.839698
0.99952	-1.282E-10	283.864291	0.0999999	0.000103122	283.864291
0.7995	-1.162E-10	283.888823	0.0999999	0.000102589	283.888823
0.59952	-1.249E-10	283.913407	0.1000001	0.000102056	283.913407
0.39951	-1.494E-10	283.93793	0.0999999	0.000101522	283.93793
0.19951	-1.611E-10	283.962458	0.0999999	0.000100993	283.962458
-0.00048	-2.603E-10	283.986973	0.1000001	0.000100465	283.986973
-0.20049	-1.659E-10	284.01151	0.1	9.9944E-05	284.01151
-0.40048	-1.738E-10	284.036126	0.0999997	9.9425E-05	284.036126
-0.60049	-1.792E-10	284.06065	0.0999999	9.8913E-05	284.06065
-0.80049	-1.862E-10	284.085174	0.0999998	9.8411E-05	284.085174
-1.0005	-1.876E-10	284.109692	0.1000001	9.7916E-05	284.109692
-1.20048	-1.591E-10	284.134211	0.1	9.7433E-05	284.134211
-1.4005	-1.966E-10	284.158734	0.0999999	9.6961E-05	284.158734
-1.60048	-2.226E-10	284.183304	0.1	9.6491E-05	284.183304
-1.80049	-1.887E-10	284.207885	0.0999999	9.6027E-05	284.207885
-2.00049	-1.87E-10	284.232422	0.1000002	9.5565E-05	284.232422
-2.20048	-2.056E-10	284.25695	0.1000002	9.51E-05	284.25695
-2.40049	-1.489E-10	284.319228	0.1000001	9.464E-05	284.319228
-2.60049	-1.899E-10	284.343802	0.1000001	9.4175E-05	284.343802
-2.80049	-1.939E-10	284.368357	0.1	9.3709E-05	284.368357
-3.00049	-1.88E-10	284.392906	0.0999999	9.3242E-05	284.392906
-3.20049	-2.171E-10	284.417471	0.0999998	9.2774E-05	284.417471
-3.40049	-2.22E-10	284.442011	0.0999999	9.2306E-05	284.442011
-3.60049	-2.129E-10	284.466524	0.0999997	9.1836E-05	284.466524
-3.80048	-2.293E-10	284.491085	0.1000001	9.1368E-05	284.491085
-4.00047	-2.194E-10	284.515594	0.1000001	9.0895E-05	284.515594
-4.2005	-2.317E-10	284.540171	0.1000001	9.0422E-05	284.540171
-4.40048	-2.59E-10	284.564687	0.1	8.9948E-05	284.564687
-4.60048	-2.35E-10	284.589203	0.1000001	8.9471E-05	284.589203
-4.80048	-2.186E-10	284.613725	0.1	8.8994E-05	284.613725
-5.00049	-2.569E-10	284.638288	0.1000001	8.8516E-05	284.638288
-5.20048	-2.219E-10	284.666218	0.1000043	8.79551E-05	284.666218
-5.4005	-2.525E-10	284.690742	0.1000045	8.74736E-05	284.690742
-5.60048	-2.463E-10	284.715249	0.100004	8.69914E-05	284.715249
-5.80049	-2.547E-10	284.739762	0.1000043	8.65061E-05	284.739762
-6.00049	-2.869E-10	284.764283	0.1000037	8.60191E-05	284.764283
-6.20048	-2.185E-10	284.825485	0.1000047	8.55335E-05	284.825485
-6.40048	-2.32E-10	284.849998	0.1000038	8.50434E-05	284.849998
-6.60048	-2.345E-10	284.874595	0.1000051	8.45529E-05	284.874595
-6.80047	-2.744E-10	284.899114	0.1000043	8.40577E-05	284.899114
-7.00049	-2.77E-10	284.923692	0.1000049	8.35635E-05	284.923692
-7.20049	-2.607E-10	284.948209	0.1000047	8.30645E-05	284.948209
-7.40048	-2.646E-10	284.97273	0.1000035	8.25655E-05	284.97273
-7.60049	-2.852E-10	284.997349	0.1000044	8.20652E-05	284.997349
-7.80048	-2.809E-10	285.021866	0.1000046	8.15617E-05	285.021866
-8.0005	-2.903E-10	285.046392	0.1000043	8.10575E-05	285.046392
-8.20049	-2.886E-10	285.070906	0.1000042	8.05487E-05	285.070906
-8.40049	-1.864E-10	285.095428	0.1000043	8.00399E-05	285.095428
-8.60048	-2.64E-10	285.119941	0.1000057	7.95299E-05	285.119941
-8.80049	-2.973E-10	285.144468	0.1000039	7.90142E-05	285.144468
-9.00048	-2.978E-10	285.168937	0.1000048	7.84997E-05	285.168937
-9.20048	-2.676E-10	285.193448	0.1000044	7.7982E-05	285.193448
-9.40049	-3.01E-10	285.217972	0.1000062	7.74621E-05	285.217972
-9.60048	-3.239E-10	285.242513	0.1000049	7.694E-05	285.242513
-9.80049	-2.967E-10	285.267115	0.1000041	7.64199E-05	285.267115
-10.00046	-2.673E-10	285.324661	0.1000055	7.59024E-05	285.324661
-10.20049	-2.909E-10	285.349191	0.1000042	7.53743E-05	285.349191
-10.40047	-2.739E-10	285.373738	0.100006	7.48467E-05	285.373738
-10.60047	-4.351E-10	285.398265	0.1000051	7.43151E-05	285.398265
-10.80047	-3.507E-10	285.422857	0.1000054	7.37826E-05	285.422857
-11.00046	-3.16E-10	285.44737	0.1000049	7.32463E-05	285.44737
-11.20049	-3.161E-10	285.471907	0.1000045	7.27076E-05	285.471907
-11.40048	-3.339E-10	285.496448	0.1000051	7.21678E-05	285.496448
-11.60048	-3.333E-10	285.520977	0.1000045	7.16241E-05	285.520977
-11.80049	-3.366E-10	285.545547	0.1000053	7.10782E-05	285.545547
-12.00048	-3.288E-10	285.570096	0.100005	7.05301E-05	285.570096
#scan	iMeasureCycle=3	iMux=0	time=319.761	N=222	LocalTime=22/06/2023 10:08:11
#VGate(V)	IGate(A)	time(s)	VDrain(V)	IDrain(A)	time(s)
-12.00048	-8.93E-11	319.768512	0.1000046	7.06125E-05	319.768512
-11.8005	-3.67E-11	319.793395	0.1000052	7.11638E-05	319.793395
-11.60048	-8E-13	319.819286	0.1000049	7.17108E-05	319.819286
-11.4005	3.22E-11	319.843815	0.1000053	7.22576E-05	319.843815
-11.2005	2.69E-11	319.868339	0.100004	7.27997E-05	319.868339
-11.00048	3.17E-11	319.892854	0.1000048	7.33407E-05	319.892854
-10.80049	6.61E-11	319.917395	0.1000051	7.38802E-05	319.917395
-10.6005	7.4E-11	319.94191	0.1000059	7.44163E-05	319.94191
-10.40049	7.32E-11	319.966422	0.1000059	7.49501E-05	319.966422
-10.20049	8.82E-11	319.990932	0.1000042	7.54812E-05	319.990932
-10.0005	8.34E-11	320.015459	0.1000048	7.60105E-05	320.015459
-9.80048	9.55E-11	320.04007	0.1000061	7.654E-05	320.04007
-9.60049	1.148E-10	320.064611	0.1000052	7.70639E-05	320.064611
-9.4005	1.114E-10	320.089137	0.1000045	7.75879E-05	320.089137
-9.20048	9.8E-11	320.113664	0.100005	7.81084E-05	320.113664
-9.00049	1.108E-10	320.138213	0.1000042	7.86244E-05	320.138213
-8.80049	1.536E-10	320.162727	0.1000048	7.91377E-05	320.162727
-8.6005	1.346E-10	320.187262	0.1000044	7.9648E-05	320.187262
-8.4005	1.152E-10	320.211792	0.1000053	8.01571E-05	320.211792
-8.20048	1.515E-10	320.236325	0.1000048	8.06623E-05	320.236325
-8.0005	1.538E-10	320.260892	0.100005	8.11673E-05	320.260892
-7.80047	1.501E-10	320.285419	0.1000046	8.16685E-05	320.285419
-7.6005	9.78E-11	320.332205	0.1000046	8.21673E-05	320.332205
-7.40048	2.129E-10	320.356761	0.1000062	8.26679E-05	320.356761
-7.20049	1.755E-10	320.381269	0.1000049	8.31653E-05	320.381269
-7.00049	1.752E-10	320.405811	0.1000045	8.36614E-05	320.405811
-6.80048	1.799E-10	320.430382	0.1000051	8.41559E-05	320.430382
-6.60049	1.717E-10	320.454895	0.1000047	8.46493E-05	320.454895
-6.40049	1.978E-10	320.479406	0.1000055	8.51408E-05	320.479406
-6.20049	2.109E-10	320.503933	0.1000044	8.56296E-05	320.503933
-6.0005	1.877E-10	320.52845	0.1000038	8.61168E-05	320.52845
-5.80048	1.869E-10	320.552998	0.1000045	8.66026E-05	320.552998
-5.60049	2.089E-10	320.577509	0.1000053	8.70876E-05	320.577509
-5.4005	2.144E-10	320.602096	0.1000049	8.75704E-05	320.602096
-5.20048	2.111E-10	320.626617	0.1000046	8.80514E-05	320.626617
-5.0005	7.84E-11	320.651123	0.1000037	8.85311E-05	320.651123
-4.8005	1.813E-10	320.675654	0.1000039	8.90079E-05	320.675654
-4.60048	2.112E-10	320.700169	0.1000043	8.94857E-05	320.700169
-4.4005	2.297E-10	320.724676	0.1000038	8.99611E-05	320.724676
-4.20049	2.184E-10	320.749267	0.1000043	9.04353E-05	320.749267
-4.00049	2.246E-10	320.773801	0.1000043	9.09089E-05	320.773801
-3.8005	1.697E-10	320.83388	0.1000038	9.13777E-05	320.83388
-3.60049	2.171E-10	320.858397	0.1000041	9.18499E-05	320.858397
-3.4005	2.321E-10	320.882928	0.1000031	9.23187E-05	320.882928
-3.20049	2.247E-10	320.907529	0.1000041	9.27892E-05	320.907529
-3.0005	2.316E-10	320.932117	0.100004	9.32571E-05	320.932117
-2.80049	2.459E-10	320.956636	0.1000044	9.37244E-05	320.956636
-2.60049	2.448E-10	320.98116	0.1000045	9.41919E-05	320.98116
-2.4005	2.581E-10	321.005644	0.1000041	9.46543E-05	321.005644
-2.20051	2.663E-10	321.030183	0.1000041	9.51208E-05	321.030183
-2.00051	2.503E-10	321.054722	0.1000039	9.55852E-05	321.054722
-1.8005	2.548E-10	321.079267	0.1000039	9.60503E-05	321.079267
-1.60049	3.002E-10	321.103781	0.100004	9.65181E-05	321.103781
-1.4005	2.681E-10	321.128323	0.1000039	9.69905E-05	321.128323
-1.2005	2.533E-10	321.152837	0.1000035	9.74694E-05	321.152837
-1.00049	2.834E-10	321.177362	0.1000043	9.79583E-05	321.177362
-0.80051	2.862E-10	321.20188	0.1000043	9.84572E-05	321.20188
-0.60048	2.893E-10	321.226413	0.1000053	9.89641E-05	321.226413
-0.4005	2.812E-10	321.251007	0.1000039	9.94788E-05	321.251007
-0.20051	2.872E-10	321.275614	0.1000043	9.99984E-05	321.275614
-0.0005	2.466E-10	321.33119	0.1000038	0.0001005173	321.33119
0.19948	2.884E-10	321.355727	0.1000025	0.0001010455	321.355727
0.3995	2.892E-10	321.38023	0.1000031	0.0001015756	321.38023
0.59952	2.916E-10	321.40476	0.1000042	0.0001021076	321.40476
0.79949	3.11E-10	321.429313	0.1000039	0.0001026398	321.429313
0.9995	2.926E-10	321.453858	0.1000037	0.0001031726	321.453858
1.19949	3.055E-10	321.478374	0.1000031	0.0001037074	321.478374
1.39949	3.398E-10	321.502902	0.1000036	0.0001042453	321.502902
1.59949	2.635E-10	321.532544	0.1	0.000104863	321.532544
1.79949	3.276E-10	321.557081	0.1000003	0.000105402	321.557081
1.9995	3.268E-10	321.581585	0.0999999	0.000105943	321.581585
2.1995	3.185E-10	321.606162	0.1000002	0.000106485	321.606162
2.3995	3.291E-10	321.630695	0.0999998	0.000107027	321.630695
2.5995	3.269E-10	321.655211	0.0999999	0.000107573	321.655211
2.79949	3.385E-10	321.679734	0.0999999	0.000108115	321.679734
2.99949	3.465E-10	321.704251	0.0999999	0.000108661	321.704251
3.1995	3.483E-10	321.728778	0.1000001	0.000109205	321.728778
3.39949	5.669E-10	321.753346	0.0999999	0.000109747	321.753346
3.59949	3.723E-10	321.77787	0.0999997	0.000110291	321.77787
3.79949	2.912E-10	321.840055	0.1	0.00011083	321.840055
3.9995	3.44E-10	321.864596	0.0999999	0.000111372	321.864596
4.1995	3.453E-10	321.889126	0.0999997	0.000111912	321.889126
4.3995	3.347E-10	321.913657	0.1	0.000112451	321.913657
4.5995	3.58E-10	321.938235	0.0999999	0.000112987	321.938235
4.79949	3.871E-10	321.96276	0.0999999	0.000113525	321.96276
4.99952	3.655E-10	321.987284	0.0999998	0.000114058	321.987284
5.1995	3.513E-10	322.011807	0.0999999	0.000114589	322.011807
5.39949	3.788E-10	322.03637	0.1	0.000115118	322.03637
5.5995	2.727E-10	322.060903	0.0999999	0.000115644	322.060903
5.79948	3.621E-10	322.085435	0.0999998	0.000116166	322.085435
5.99949	3.691E-10	322.10994	0.0999999	0.000116684	322.10994
6.1995	3.634E-10	322.13455	0.1	0.000117202	322.13455
6.3995	3.84E-10	322.159063	0.1	0.000117717	322.159063
6.5995	3.865E-10	322.183565	0.0999999	0.000118229	322.183565
6.79949	3.856E-10	322.208082	0.1	0.000118737	322.208082
6.99949	3.799E-10	322.232674	0.1	0.000119242	322.232674
7.1995	3.884E-10	322.257288	0.1000002	0.000119746	322.257288
7.39949	4.017E-10	322.281802	0.0999999	0.000120245	322.281802
7.59949	3.292E-10	322.338819	0.0999999	0.000120736	322.338819
7.79951	3.932E-10	322.363328	0.0999999	0.000121234	322.363328
7.99948	3.948E-10	322.387862	0.1	0.000121726	322.387862
8.1995	3.733E-10	322.412372	0.0999999	0.000122212	322.412372
8.3995	3.848E-10	322.436944	0.1000002	0.000122698	322.436944
8.5995	4.126E-10	322.461459	0.1	0.000123181	322.461459
8.79952	4.138E-10	322.485972	0.1000001	0.000123662	322.485972
8.99948	3.995E-10	322.510482	0.0999999	0.00012414	322.510482
9.1995	3.968E-10	322.535067	0.1	0.000124616	322.535067
9.39949	4.265E-10	322.559605	0.1	0.000125094	322.559605
9.5995	4.31E-10	322.584116	0.0999999	0.000125566	322.584116
9.7995	4.083E-10	322.608704	0.0999998	0.000126042	322.608704
9.9995	4.242E-10	322.633229	0.1	0.000126511	322.633229
9.99948	3.615E-10	322.65658	0.0999997	0.000126511	322.65658
9.79951	2.914E-10	322.681094	0.1000001	0.000126044	322.681094
9.5995	2.582E-10	322.705597	0.1000002	0.000125576	322.705597
9.3995	2.081E-10	322.730111	0.1	0.000125102	322.730111
9.1995	1.689E-10	322.754723	0.1000002	0.000124627	322.754723
8.9995	1.793E-10	322.779245	0.1000001	0.000124151	322.779245
8.79951	2.056E-10	322.84039	0.1000001	0.000123668	322.84039
8.59949	1.444E-10	322.864904	0.1000001	0.000123178	322.864904
8.39951	1.156E-10	322.889417	0.1	0.000122687	322.889417
8.19951	1.007E-10	322.913924	0.1000001	0.000122193	322.913924
7.99949	9.65E-11	322.938484	0.0999999	0.000121698	322.938484
7.79951	9.75E-11	322.963013	0.1000001	0.0001212	322.963013
7.59951	7.2E-11	322.98753	0.1	0.000120696	322.98753
7.39949	6.12E-11	323.012037	0.1	0.000120192	323.012037
7.1995	4.73E-11	323.036572	0.0999999	0.000119686	323.036572
6.99951	3.94E-11	323.061099	0.0999998	0.000119178	323.061099
6.7995	5.16E-11	323.085616	0.1	0.000118666	323.085616
6.5995	2.18E-11	323.110129	0.0999998	0.000118151	323.110129
6.39951	-9.1E-12	323.134646	0.1	0.000117636	323.134646
6.1995	1.186E-10	323.159169	0.1	0.000117114	323.159169
5.9995	3.79E-11	323.183683	0.0999998	0.000116594	323.183683
5.79951	-3.8E-12	323.208198	0.1000004	0.000116069	323.208198
5.59951	-2.03E-11	323.232778	0.0999999	0.000115542	323.232778
5.39948	-6.5E-12	323.257406	0.0999998	0.000115013	323.257406
5.19951	-1.18E-11	323.281983	0.1000002	0.000114481	323.281983
4.99951	-8.74E-11	323.341939	0.0999999	0.000113947	323.341939
4.79949	-8.5E-12	323.36647	0.0999999	0.00011341	323.36647
4.59951	-4.45E-11	323.390994	0.1	0.00011287	323.390994
4.3995	-5.27E-11	323.415493	0.0999999	0.000112331	323.415493
4.1995	-4.65E-11	323.440069	0.1000001	0.000111788	323.440069
3.99951	-4.74E-11	323.464593	0.1	0.000111243	323.464593
3.79951	-6.61E-11	323.489111	0.1000001	0.000110697	323.489111
3.59951	-8.82E-11	323.513644	0.1	0.000110153	323.513644
3.39948	-7E-11	323.538197	0.0999999	0.000109605	323.538197
3.19951	-6.8E-11	323.562776	0.1000002	0.000109059	323.562776
2.99951	-1.008E-10	323.587295	0.0999999	0.000108511	323.587295
2.7995	-8.57E-11	323.611885	0.0999999	0.000107964	323.611885
2.59951	-9.78E-11	323.636485	0.1000001	0.00010742	323.636485
2.3995	-1.062E-10	323.661024	0.0999999	0.000106873	323.661024
2.19951	-9.93E-11	323.685546	0.0999999	0.000106329	323.685546
1.9995	-1.061E-10	323.71006	0.1	0.000105787	323.71006
1.7995	-1.407E-10	323.734583	0.1000001	0.000105242	323.734583
1.5995	-1.228E-10	323.759202	0.1	0.000104702	323.759202
1.39951	-1.076E-10	323.783721	0.1000002	0.000104163	323.783721
1.1995	-8.46E-11	323.839179	0.0999999	0.000103627	323.839179
0.99951	-9.89E-11	323.863706	0.0999997	0.000103089	323.863706
0.79951	-1.245E-10	323.888249	0.1000001	0.000102556	323.888249
0.59952	-1.567E-10	323.912768	0.0999999	0.000102022	323.912768
0.3995	-1.362E-10	323.937431	0.1	0.00010149	323.937431
0.1995	-1.4E-10	323.961961	0.1	0.00010096	323.961961
-0.00049	-1.603E-10	323.986468	0.0999996	0.000100434	323.986468
-0.2005	-1.639E-10	324.010982	0.0999999	9.9909E-05	324.010982
-0.40049	-1.696E-10	324.035501	0.1000002	9.9391E-05	324.035501
-0.60049	-1.744E-10	324.060061	0.0999999	9.888E-05	324.060061
-0.8005	-1.655E-10	324.084585	0.1000001	9.8378E-05	324.084585
-1.00048	-1.758E-10	324.109098	0.1	9.7885E-05	324.109098
-1.2005	-2.022E-10	324.13367	0.1000001	9.7402E-05	324.13367
-1.40049	-1.858E-10	324.158216	0.0999999	9.6929E-05	324.158216
-1.60049	-1.84E-10	324.182724	0.1000001	9.646E-05	324.182724
-1.8005	-1.898E-10	324.207258	0.1	9.5993E-05	324.207258
-2.00049	-2.062E-10	324.231777	0.1	9.5532E-05	324.231777
-2.20049	-2.218E-10	324.256405	0.0999997	9.5068E-05	324.256405
-2.40049	-1.838E-10	324.280978	0.1	9.4604E-05	324.280978
-2.60048	-1.136E-10	324.343243	0.1	9.4142E-05	324.343243
-2.80048	-1.86E-10	324.367832	0.1000002	9.3677E-05	324.367832
-3.00049	-2.146E-10	324.392389	0.0999999	9.321E-05	324.392389
-3.20049	-2.016E-10	324.416906	0.0999996	9.2743E-05	324.416906
-3.4005	-2.07E-10	324.441472	0.0999998	9.2275E-05	324.441472
-3.60048	-2.178E-10	324.466014	0.1	9.1805E-05	324.466014
-3.80048	-2.259E-10	324.490521	0.0999999	9.1335E-05	324.490521
-4.00049	-2.343E-10	324.515046	0.1000001	9.0862E-05	324.515046
-4.20049	-2.239E-10	324.539566	0.0999999	9.0389E-05	324.539566
-4.40049	-1.897E-10	324.564121	0.1000001	8.9916E-05	324.564121
-4.60049	-1.881E-10	324.588661	0.1	8.9441E-05	324.588661
-4.80048	-2.382E-10	324.613229	0.1	8.8964E-05	324.613229
-5.0005	-2.438E-10	324.637764	0.0999997	8.8484E-05	324.637764
-5.20049	-2.08E-10	324.665604	0.1000045	8.79226E-05	324.665604
-5.4005	-2.517E-10	324.690111	0.1000041	8.74427E-05	324.690111
-5.60049	-2.642E-10	324.714615	0.1000049	8.69606E-05	324.714615
-5.80048	-2.478E-10	324.739123	0.1000036	8.64743E-05	324.739123
-6.00049	-2.499E-10	324.763715	0.1000041	8.59886E-05	324.763715
-6.20047	-2.625E-10	324.788236	0.1000049	8.55008E-05	324.788236
-6.40047	-2.22E-10	324.849667	0.1000035	8.50125E-05	324.849667
-6.60048	-2.715E-10	324.874199	0.1000052	8.45215E-05	324.874199
-6.80047	-2.729E-10	324.898747	0.1000048	8.40272E-05	324.898747
-7.00049	-2.536E-10	324.923279	0.1000047	8.35311E-05	324.923279
-7.20048	-2.725E-10	324.947864	0.1000049	8.30344E-05	324.947864
-7.40049	-2.894E-10	324.972424	0.100004	8.2535E-05	324.972424
-7.6005	-2.919E-10	324.996927	0.1000046	8.20333E-05	324.996927
-7.80047	-2.729E-10	325.021455	0.1000049	8.15303E-05	325.021455
-8.00047	-2.754E-10	325.04596	0.1000049	8.10245E-05	325.04596
-8.20048	-3.028E-10	325.070496	0.1000046	8.05175E-05	325.070496
-8.40049	-2.995E-10	325.095004	0.1000043	8.00077E-05	325.095004
-8.60048	-2.985E-10	325.119536	0.1000048	7.94975E-05	325.119536
-8.80048	-2.874E-10	325.144056	0.1000038	7.89826E-05	325.144056
-9.00048	-3.037E-10	325.168582	0.1000043	7.8467E-05	325.168582
-9.20048	-3.095E-10	325.193105	0.1000052	7.79505E-05	325.193105
-9.40048	-3.065E-10	325.217632	0.1000056	7.74309E-05	325.217632
-9.60049	-3.16E-10	325.242144	0.1000053	7.69076E-05	325.242144
-9.80048	-2.901E-10	325.266786	0.1000056	7.63874E-05	325.266786
-10.00047	-3.252E-10	325.291314	0.1000049	7.58619E-05	325.291314
-10.20048	-2.542E-10	325.344057	0.1000055	7.5344E-05	325.344057
-10.4005	-3.125E-10	325.368593	0.1000046	7.48153E-05	325.368593
-10.6005	-3.086E-10	325.393117	0.1000049	7.42837E-05	325.393117
-10.80046	-3.129E-10	325.417641	0.1000056	7.3751E-05	325.417641
-11.00047	-3.215E-10	325.442208	0.1000054	7.32146E-05	325.442208
-11.20048	-3.101E-10	325.466825	0.1000053	7.26754E-05	325.466825
-11.40049	-3.317E-10	325.491349	0.1000054	7.21347E-05	325.491349
-11.60048	-3.55E-10	325.515952	0.1000044	7.15911E-05	325.515952
-11.80049	-3.286E-10	325.540461	0.1000049	7.10446E-05	325.540461
-12.00048	-3.145E-10	325.565001	0.1000049	7.04975E-05	325.565001
