#scan	iMeasureCycle=1	iMux=0	time=0.037	N=222	LocalTime=22/06/2023 09:08:51
#VGate(V)	IGate(A)	time(s)	VDrain(V)	IDrain(A)	time(s)
-12.0005	-3.1556E-09	0.062813	0.1000064	6.92044E-05	0.062813
-11.80049	-2.9678E-09	0.08771	0.1000069	6.97614E-05	0.08771
-11.60051	-1.1705E-09	0.112229	0.1000052	7.03148E-05	0.112229
-11.40049	-5.129E-10	0.136813	0.1000061	7.08668E-05	0.136813
-11.20053	-3.444E-10	0.161321	0.1000055	7.14153E-05	0.161321
-11.00049	-2.186E-10	0.185838	0.1000058	7.19622E-05	0.185838
-10.80048	-1.417E-10	0.210361	0.100006	7.25062E-05	0.210361
-10.6005	-9.33E-11	0.234986	0.1000057	7.30461E-05	0.234986
-10.40049	-9.42E-11	0.259507	0.100006	7.35871E-05	0.259507
-10.20049	-4.23E-11	0.28405	0.1000051	7.41217E-05	0.28405
-10.00049	4.7E-12	0.308574	0.1000065	7.46595E-05	0.308574
-9.8005	-1.1E-11	0.333103	0.1000056	7.51914E-05	0.333103
-9.6005	-5E-13	0.357642	0.1000062	7.57231E-05	0.357642
-9.4005	3.22E-11	0.382157	0.1000053	7.6252E-05	0.382157
-9.2005	4.25E-11	0.406695	0.1000062	7.67781E-05	0.406695
-9.0005	4.81E-11	0.431223	0.100006	7.72984E-05	0.431223
-8.80048	5.23E-11	0.455758	0.100006	7.78178E-05	0.455758
-8.60051	6.64E-11	0.480328	0.1000057	7.83328E-05	0.480328
-8.4005	7.97E-11	0.50486	0.1000053	7.88465E-05	0.50486
-8.20049	8.22E-11	0.529374	0.1000048	7.93572E-05	0.529374
-8.00048	1.048E-10	0.553894	0.1000059	7.98667E-05	0.553894
-7.80046	9.53E-11	0.578397	0.1000059	8.03722E-05	0.578397
-7.6005	7.96E-11	0.62688	0.100005	8.08749E-05	0.62688
-7.40048	1.143E-10	0.651409	0.1000065	8.13805E-05	0.651409
-7.20049	1.051E-10	0.675917	0.1000054	8.18824E-05	0.675917
-7.0005	1.274E-10	0.70044	0.1000047	8.23843E-05	0.70044
-6.80047	1.472E-10	0.72503	0.1000052	8.28846E-05	0.72503
-6.6005	1.597E-10	0.749626	0.1000054	8.33823E-05	0.749626
-6.40049	1.325E-10	0.77417	0.1000044	8.38769E-05	0.77417
-6.20049	1.455E-10	0.798712	0.1000049	8.43724E-05	0.798712
-6.0005	1.831E-10	0.823232	0.1000057	8.48635E-05	0.823232
-5.80048	2.531E-10	0.847748	0.1000057	8.53557E-05	0.847748
-5.60049	1.718E-10	0.872273	0.1000059	8.58451E-05	0.872273
-5.40049	1.939E-10	0.896785	0.1000052	8.63331E-05	0.896785
-5.20049	1.865E-10	0.921316	0.1000049	8.68204E-05	0.921316
-5.0005	1.902E-10	0.945857	0.1000064	8.73061E-05	0.945857
-4.80047	2.108E-10	0.970378	0.1000053	8.77888E-05	0.970378
-4.60048	2.031E-10	0.994894	0.1000054	8.827E-05	0.994894
-4.40049	1.983E-10	1.019433	0.1000052	8.87522E-05	1.019433
-4.20049	6.45E-11	1.043937	0.100005	8.92314E-05	1.043937
-4.00049	2.23E-10	1.068457	0.1000058	8.97117E-05	1.068457
-3.80049	1.602E-10	1.128167	0.1000046	9.01844E-05	1.128167
-3.60049	1.988E-10	1.152752	0.1000048	9.06625E-05	1.152752
-3.4005	2.032E-10	1.177268	0.1000049	9.1138E-05	1.177268
-3.20048	2.126E-10	1.201813	0.100005	9.16137E-05	1.201813
-3.00048	2.213E-10	1.226375	0.1000051	9.20861E-05	1.226375
-2.80051	2.368E-10	1.250978	0.1000057	9.256E-05	1.250978
-2.6005	2.291E-10	1.275499	0.1000053	9.3031E-05	1.275499
-2.4005	2.274E-10	1.300048	0.1000045	9.35012E-05	1.300048
-2.20049	2.399E-10	1.324556	0.1000055	9.39705E-05	1.324556
-2.00049	2.775E-10	1.34913	0.1000044	9.44396E-05	1.34913
-1.8005	2.518E-10	1.373659	0.1000046	9.49108E-05	1.373659
-1.60048	2.35E-10	1.398178	0.1000047	9.53831E-05	1.398178
-1.40051	2.787E-10	1.42272	0.1000048	9.58601E-05	1.42272
-1.2005	2.796E-10	1.447207	0.1000046	9.63449E-05	1.447207
-1.0005	2.621E-10	1.471803	0.1000043	9.68377E-05	1.471803
-0.80049	2.765E-10	1.496314	0.1000048	9.7342E-05	1.496314
-0.60047	2.828E-10	1.520832	0.100004	9.78542E-05	1.520832
-0.40049	2.914E-10	1.545356	0.1000047	9.8374E-05	1.545356
-0.20049	2.896E-10	1.569888	0.1000042	9.88974E-05	1.569888
-0.00048	2.634E-10	1.629747	0.1000043	9.94216E-05	1.629747
0.1995	2.687E-10	1.654301	0.1000046	9.99559E-05	1.654301
0.39953	2.668E-10	1.678816	0.1000044	0.0001004916	1.678816
0.59951	2.972E-10	1.703341	0.100004	0.0001010287	1.703341
0.79948	3.085E-10	1.727903	0.1000044	0.0001015661	1.727903
0.9995	2.948E-10	1.752589	0.100004	0.0001021065	1.752589
1.19951	2.948E-10	1.777119	0.1000046	0.0001026485	1.777119
1.39951	3.204E-10	1.801659	0.1000044	0.0001031911	1.801659
1.59951	3.204E-10	1.826192	0.1000041	0.0001037345	1.826192
1.79951	3.154E-10	1.850714	0.1000036	0.0001042803	1.850714
1.99951	2.533E-10	1.897671	0.1	0.0001049	1.897671
2.1995	2.957E-10	1.922215	0.1000001	0.000105449	1.922215
2.39949	3.478E-10	1.946742	0.1	0.000105999	1.946742
2.59951	3.219E-10	1.971294	0.1000003	0.000106548	1.971294
2.79949	3.164E-10	1.995796	0.1	0.000107099	1.995796
2.99949	3.412E-10	2.020331	0.1000001	0.000107649	2.020331
3.19953	3.479E-10	2.044856	0.0999999	0.000108199	2.044856
3.39949	3.461E-10	2.069387	0.1000001	0.000108751	2.069387
3.5995	2.648E-10	2.13256	0.1000002	0.000109293	2.13256
3.7995	3.078E-10	2.157222	0.0999999	0.000109843	2.157222
3.99952	3.407E-10	2.181761	0.1000001	0.000110392	2.181761
4.1995	3.422E-10	2.20628	0.1	0.000110939	2.20628
4.3995	3.378E-10	2.230878	0.1000002	0.000111483	2.230878
4.59952	4.187E-10	2.25548	0.1000001	0.000112028	2.25548
4.79949	3.703E-10	2.279986	0.0999998	0.00011257	2.279986
4.99951	3.685E-10	2.304517	0.1	0.000113108	2.304517
5.1995	3.813E-10	2.329044	0.1	0.000113643	2.329044
5.39951	3.807E-10	2.353564	0.1	0.000114176	2.353564
5.59951	3.581E-10	2.378075	0.1	0.000114707	2.378075
5.79949	3.744E-10	2.402587	0.0999999	0.000115233	2.402587
5.9995	3.99E-10	2.427109	0.0999999	0.000115759	2.427109
6.19946	2.31E-10	2.451627	0.0999999	0.000116281	2.451627
6.3995	3.562E-10	2.476203	0.0999999	0.000116798	2.476203
6.59948	3.736E-10	2.500729	0.1	0.000117315	2.500729
6.79951	3.902E-10	2.525231	0.0999998	0.00011783	2.525231
6.9995	3.989E-10	2.549764	0.1	0.000118341	2.549764
7.19949	3.753E-10	2.574282	0.1	0.000118847	2.574282
7.39951	3.378E-10	2.633417	0.1000001	0.000119348	2.633417
7.59951	3.467E-10	2.657946	0.1	0.000119851	2.657946
7.79949	3.842E-10	2.68246	0.1	0.00012035	2.68246
7.99948	4.104E-10	2.706968	0.1	0.000120846	2.706968
8.19947	3.847E-10	2.73154	0.0999999	0.00012134	2.73154
8.39949	3.863E-10	2.75615	0.1	0.00012183	2.75615
8.59949	4.037E-10	2.780674	0.1	0.000122319	2.780674
8.7995	4.212E-10	2.805217	0.0999999	0.000122805	2.805217
8.99951	4.131E-10	2.829738	0.1000001	0.000123284	2.829738
9.1995	4.002E-10	2.854271	0.1000001	0.000123767	2.854271
9.39948	4.14E-10	2.878783	0.0999999	0.000124251	2.878783
9.59948	4.222E-10	2.903322	0.0999999	0.00012473	2.903322
9.79951	4.209E-10	2.927821	0.1	0.000125207	2.927821
9.99948	4.322E-10	2.952441	0.0999996	0.000125679	2.952441
9.99947	3.652E-10	2.975791	0.1000001	0.000125678	2.975791
9.79951	2.697E-10	3.00032	0.1000002	0.000125206	3.00032
9.59948	2.554E-10	3.024834	0.1	0.000124732	3.024834
9.3995	2.271E-10	3.04945	0.1000001	0.000124254	3.04945
9.19949	1.883E-10	3.073967	0.0999999	0.000123773	3.073967
8.99951	1.937E-10	3.134694	0.1	0.000123291	3.134694
8.79951	1.584E-10	3.15926	0.1000001	0.000122804	3.15926
8.59952	1.378E-10	3.183803	0.1000002	0.000122311	3.183803
8.39952	1.412E-10	3.208314	0.1	0.000121816	3.208314
8.19951	1.086E-10	3.232911	0.0999999	0.000121316	3.232911
7.9995	8.11E-11	3.257496	0.0999999	0.000120812	3.257496
7.79952	8.58E-11	3.282021	0.0999999	0.000120307	3.282021
7.5995	8.24E-11	3.306549	0.1000001	0.000119798	3.306549
7.3995	6.38E-11	3.331062	0.0999999	0.000119289	3.331062
7.19952	4.99E-11	3.355573	0.1	0.000118777	3.355573
6.99949	2.74E-11	3.380096	0.0999999	0.000118264	3.380096
6.79953	4.81E-11	3.404615	0.0999998	0.000117746	3.404615
6.59951	3.66E-11	3.429134	0.1	0.000117227	3.429134
6.39951	7E-13	3.453649	0.0999997	0.000116705	3.453649
6.19951	-3.8E-12	3.478215	0.0999999	0.000116178	3.478215
5.99951	1.41E-11	3.502751	0.1000001	0.000115653	3.502751
5.79951	-4.9E-12	3.527264	0.1000001	0.000115123	3.527264
5.5995	-2.27E-11	3.551803	0.1000001	0.000114587	3.551803
5.3995	-2.18E-11	3.57633	0.1000001	0.000114051	3.57633
5.19953	8.8E-12	3.636318	0.1000001	0.000113512	3.636318
4.9995	1.252E-10	3.660855	0.0999999	0.000112971	3.660855
4.79951	1.5E-12	3.68538	0.0999998	0.000112427	3.68538
4.59951	-1.79E-11	3.709895	0.0999997	0.000111883	3.709895
4.39949	-4.3E-11	3.734459	0.1	0.000111335	3.734459
4.1995	-5.29E-11	3.758996	0.1	0.000110784	3.758996
3.99951	-4.43E-11	3.783516	0.1000002	0.000110235	3.783516
3.79951	-4.26E-11	3.808048	0.1000001	0.000109682	3.808048
3.59952	-7.77E-11	3.832567	0.1000001	0.00010913	3.832567
3.39951	-2.027E-10	3.857095	0.1	0.000108577	3.857095
3.19951	-9.15E-11	3.881632	0.1	0.000108021	3.881632
2.99951	-9.49E-11	3.906133	0.1	0.000107469	3.906133
2.79948	-1.071E-10	3.930655	0.0999998	0.000106916	3.930655
2.59953	-1.043E-10	3.95517	0.0999999	0.000106363	3.95517
2.3995	-1.22E-10	3.979691	0.0999999	0.000105811	3.979691
2.19951	-1.155E-10	4.004194	0.1000001	0.00010526	4.004194
1.99951	-9.89E-11	4.028713	0.0999999	0.000104709	4.028713
1.79949	-1.322E-10	4.053221	0.1	0.000104159	4.053221
1.59949	-1.499E-10	4.077833	0.0999998	0.000103612	4.077833
1.39951	-7.89E-11	4.137887	0.1000001	0.000103067	4.137887
1.19949	-1.022E-10	4.162475	0.0999998	0.000102524	4.162475
0.99952	-1.211E-10	4.18701	0.1	0.000101981	4.18701
0.79951	-1.312E-10	4.211548	0.1000001	0.000101439	4.211548
0.59951	-1.473E-10	4.236129	0.0999997	0.0001009	4.236129
0.39952	-1.474E-10	4.260719	0.1000001	0.00010036	4.260719
0.1995	-1.544E-10	4.285226	0.0999999	9.9822E-05	4.285226
-0.00048	-1.534E-10	4.309757	0.0999999	9.9288E-05	4.309757
-0.20049	-1.617E-10	4.334253	0.0999999	9.8761E-05	4.334253
-0.40049	-1.879E-10	4.358788	0.1000002	9.8237E-05	4.358788
-0.60048	-1.764E-10	4.383315	0.0999998	9.7718E-05	4.383315
-0.80048	-1.444E-10	4.407838	0.1	9.721E-05	4.407838
-1.0005	-1.911E-10	4.432353	0.0999998	9.6713E-05	4.432353
-1.20049	-2.184E-10	4.456888	0.0999999	9.6225E-05	4.456888
-1.40047	-1.79E-10	4.481464	0.0999999	9.5746E-05	4.481464
-1.60048	-1.765E-10	4.505999	0.1	9.5275E-05	4.505999
-1.80048	-2.049E-10	4.530509	0.0999999	9.4803E-05	4.530509
-2.00049	-2.018E-10	4.555056	0.0999999	9.4333E-05	4.555056
-2.2005	-2.101E-10	4.579578	0.1000001	9.3865E-05	4.579578
-2.40046	-1.609E-10	4.639707	0.1	9.3398E-05	4.639707
-2.60047	-1.811E-10	4.664243	0.1	9.2927E-05	4.664243
-2.80049	-1.83E-10	4.688767	0.1	9.2456E-05	4.688767
-3.00047	-2.179E-10	4.713296	0.1000001	9.1982E-05	4.713296
-3.20051	-2.381E-10	4.737865	0.1	9.1508E-05	4.737865
-3.4005	-2.106E-10	4.762493	0.0999999	9.1035E-05	4.762493
-3.60048	-2.082E-10	4.787021	0.1000001	9.0561E-05	4.787021
-3.80047	-2.348E-10	4.811586	0.1000002	9.0083E-05	4.811586
-4.00048	-2.567E-10	4.836105	0.0999999	8.9605E-05	4.836105
-4.20047	-2.264E-10	4.860635	0.1000002	8.9125E-05	4.860635
-4.40048	-2.018E-10	4.888494	0.1000047	8.85673E-05	4.888494
-4.60048	-2.502E-10	4.913007	0.100005	8.80865E-05	4.913007
-4.80049	-2.686E-10	4.937538	0.1000049	8.7605E-05	4.937538
-5.00049	-2.449E-10	4.962044	0.100005	8.71209E-05	4.962044
-5.20049	-2.376E-10	4.986575	0.1000052	8.66357E-05	4.986575
-5.40048	-2.599E-10	5.011098	0.1000047	8.61481E-05	5.011098
-5.60049	-2.81E-10	5.035672	0.1000049	8.56592E-05	5.035672
-5.80048	-1.313E-10	5.060182	0.1000045	8.51683E-05	5.060182
-6.00049	-2.36E-10	5.084707	0.1000061	8.46762E-05	5.084707
-6.20047	-2.031E-10	5.144241	0.1000051	8.41838E-05	5.144241
-6.40046	-2.278E-10	5.168776	0.100005	8.36883E-05	5.168776
-6.60048	-2.54E-10	5.193384	0.1000063	8.31915E-05	5.193384
-6.80047	-2.748E-10	5.217899	0.1000057	8.26918E-05	5.217899
-7.00049	-2.623E-10	5.242457	0.1000055	8.21891E-05	5.242457
-7.20049	-5.046E-10	5.267024	0.1000052	8.16866E-05	5.267024
-7.40047	-3.003E-10	5.291648	0.1000051	8.11806E-05	5.291648
-7.60047	-3.139E-10	5.316182	0.1000053	8.06731E-05	5.316182
-7.8005	-2.777E-10	5.340705	0.1000038	8.01636E-05	5.340705
-8.00049	-2.822E-10	5.365224	0.100005	7.96522E-05	5.365224
-8.20048	-3.127E-10	5.38976	0.1000059	7.91393E-05	5.38976
-8.40047	-3.027E-10	5.414281	0.1000054	7.86237E-05	5.414281
-8.60047	-3.103E-10	5.438816	0.1000056	7.81062E-05	5.438816
-8.80047	-2.997E-10	5.463328	0.1000055	7.75854E-05	5.463328
-9.00048	-3.061E-10	5.48792	0.1000058	7.70628E-05	5.48792
-9.20048	-3.074E-10	5.512438	0.1000059	7.65404E-05	5.512438
-9.40047	-3.303E-10	5.536957	0.1000046	7.60132E-05	5.536957
-9.6005	-3.229E-10	5.561464	0.1000054	7.54864E-05	5.561464
-9.80048	-3.034E-10	5.585992	0.1000055	7.49597E-05	5.585992
-10.00049	-2.757E-10	5.642858	0.1000051	7.44351E-05	5.642858
-10.20049	-2.727E-10	5.667396	0.1000053	7.39034E-05	5.667396
-10.40048	-3.138E-10	5.69192	0.1000057	7.337E-05	5.69192
-10.60049	-3.386E-10	5.71645	0.1000053	7.28318E-05	5.71645
-10.80044	-3.178E-10	5.741026	0.1000058	7.22938E-05	5.741026
-11.00047	-3.001E-10	5.765631	0.1000053	7.17518E-05	5.765631
-11.20049	-3.329E-10	5.790163	0.100005	7.12067E-05	5.790163
-11.40049	-3.49E-10	5.814724	0.1000052	7.06596E-05	5.814724
-11.60048	-3.353E-10	5.839258	0.1000052	7.01111E-05	5.839258
-11.80049	-3.276E-10	5.863776	0.1000059	6.95607E-05	5.863776
-12.00046	-3.328E-10	5.888304	0.1000054	6.90063E-05	5.888304
#scan	iMeasureCycle=2	iMux=0	time=279.687	N=222	LocalTime=22/06/2023 09:13:31
#VGate(V)	IGate(A)	time(s)	VDrain(V)	IDrain(A)	time(s)
-12.00049	-7.61E-11	279.694484	0.1000055	6.90675E-05	279.694484
-11.80049	-1.1E-11	279.719374	0.1000062	6.96233E-05	279.719374
-11.60049	8.2E-12	279.744965	0.1000054	7.01778E-05	279.744965
-11.4005	3.16E-11	279.769476	0.1000064	7.0729E-05	279.769476
-11.20047	4.26E-11	279.794023	0.1000059	7.1277E-05	279.794023
-11.0005	6.63E-11	279.818543	0.100006	7.1824E-05	279.818543
-10.80048	5.8E-11	279.843059	0.1000057	7.2368E-05	279.843059
-10.60048	7.6E-11	279.867565	0.1000054	7.29101E-05	279.867565
-10.4005	1.147E-10	279.89208	0.100006	7.34499E-05	279.89208
-10.2005	9.13E-11	279.916722	0.1000047	7.39869E-05	279.916722
-10.00048	7.46E-11	279.94125	0.1000056	7.45238E-05	279.94125
-9.80048	1.175E-10	279.965769	0.1000055	7.50569E-05	279.965769
-9.60049	1.431E-10	279.990385	0.1000062	7.55879E-05	279.990385
-9.40047	1.171E-10	280.014929	0.1000061	7.61171E-05	280.014929
-9.2005	1.122E-10	280.039455	0.1000057	7.66444E-05	280.039455
-9.00047	1.36E-10	280.063979	0.1000063	7.71653E-05	280.063979
-8.80048	1.479E-10	280.088485	0.100005	7.76849E-05	280.088485
-8.6005	1.506E-10	280.113101	0.1000044	7.82018E-05	280.113101
-8.40049	1.346E-10	280.137626	0.1000054	7.8717E-05	280.137626
-8.20049	1.493E-10	280.162153	0.1000058	7.92289E-05	280.162153
-8.0005	1.624E-10	280.18676	0.1000044	7.97384E-05	280.18676
-7.80048	1.692E-10	280.211299	0.1000048	8.02462E-05	280.211299
-7.60049	1.132E-10	280.258027	0.1000055	8.07511E-05	280.258027
-7.40051	1.353E-10	280.282644	0.1000058	8.12572E-05	280.282644
-7.2005	1.818E-10	280.307146	0.1000054	8.17613E-05	280.307146
-7.00049	1.803E-10	280.331672	0.100005	8.22641E-05	280.331672
-6.80047	1.744E-10	280.356231	0.1000051	8.27639E-05	280.356231
-6.60048	1.701E-10	280.380752	0.1000048	8.3262E-05	280.380752
-6.40049	1.868E-10	280.405287	0.1000053	8.37588E-05	280.405287
-6.20048	2.092E-10	280.429889	0.1000045	8.42538E-05	280.429889
-6.00049	1.921E-10	280.454428	0.1000057	8.47487E-05	280.454428
-5.80048	1.997E-10	280.478942	0.1000051	8.52391E-05	280.478942
-5.60048	2.001E-10	280.50347	0.1000053	8.57307E-05	280.50347
-5.4005	2.001E-10	280.527989	0.1000047	8.62202E-05	280.527989
-5.20049	2.423E-10	280.552525	0.1000046	8.67051E-05	280.552525
-5.00051	2.125E-10	280.577042	0.1000054	8.71922E-05	280.577042
-4.80048	1.902E-10	280.601624	0.1000045	8.7675E-05	280.601624
-4.60049	2.224E-10	280.626148	0.1000042	8.81573E-05	280.626148
-4.40048	2.553E-10	280.650691	0.100005	8.86399E-05	280.650691
-4.20048	2.187E-10	280.675297	0.100005	8.91201E-05	280.675297
-4.00049	3.207E-10	280.699814	0.1000052	8.96001E-05	280.699814
-3.80048	1.872E-10	280.759693	0.1000059	9.00741E-05	280.759693
-3.60048	2.204E-10	280.784222	0.1000049	9.05515E-05	280.784222
-3.4005	2.285E-10	280.808768	0.1000056	9.10276E-05	280.808768
-3.20051	2.502E-10	280.833292	0.1000044	9.15025E-05	280.833292
-3.00049	2.362E-10	280.857873	0.1000049	9.19773E-05	280.857873
-2.80049	2.386E-10	280.882388	0.1000049	9.24483E-05	280.882388
-2.60049	2.595E-10	280.906913	0.100005	9.29211E-05	280.906913
-2.40049	2.766E-10	280.931483	0.1000053	9.33926E-05	280.931483
-2.2005	2.598E-10	280.956024	0.1000048	9.38619E-05	280.956024
-2.00051	2.353E-10	280.980536	0.1000045	9.43322E-05	280.980536
-1.80049	2.741E-10	281.005072	0.1000049	9.48042E-05	281.005072
-1.60047	2.939E-10	281.029593	0.100005	9.52777E-05	281.029593
-1.4005	2.702E-10	281.054125	0.1000043	9.57532E-05	281.054125
-1.20049	1.497E-10	281.078643	0.1000034	9.62374E-05	281.078643
-1.00052	2.67E-10	281.103181	0.1000042	9.67324E-05	281.103181
-0.8005	2.698E-10	281.127784	0.1000041	9.72352E-05	281.127784
-0.60049	2.837E-10	281.152306	0.1000041	9.77463E-05	281.152306
-0.4005	2.829E-10	281.176912	0.1000038	9.82673E-05	281.176912
-0.20051	2.626E-10	281.201425	0.1000041	9.87925E-05	281.201425
-0.00049	2.161E-10	281.261585	0.1000042	9.93182E-05	281.261585
0.19948	2.812E-10	281.286102	0.1000034	9.9852E-05	281.286102
0.39952	3.023E-10	281.310622	0.1000042	0.0001003893	281.310622
0.5995	2.797E-10	281.335132	0.1000039	0.0001009267	281.335132
0.79951	2.678E-10	281.359698	0.1000048	0.0001014672	281.359698
0.9995	3.061E-10	281.384211	0.100004	0.000102006	281.384211
1.19949	3.01E-10	281.40874	0.1000034	0.0001025475	281.40874
1.39951	3.026E-10	281.433259	0.1000046	0.0001030919	281.433259
1.59951	3.111E-10	281.457827	0.100004	0.0001036372	281.457827
1.7995	3.16E-10	281.482343	0.1000035	0.000104183	281.482343
1.99948	2.839E-10	281.529577	0.0999999	0.000104805	281.529577
2.1995	3.101E-10	281.554107	0.1	0.000105354	281.554107
2.3995	2.928E-10	281.578624	0.0999999	0.000105905	281.578624
2.59949	3.065E-10	281.603234	0.0999997	0.000106456	281.603234
2.79949	3.411E-10	281.627754	0.1	0.000107006	281.627754
2.99951	3.238E-10	281.652279	0.1000001	0.000107559	281.652279
3.19951	3.154E-10	281.676896	0.1	0.000108109	281.676896
3.39949	3.31E-10	281.701403	0.0999998	0.000108661	281.701403
3.5995	2.819E-10	281.764771	0.0999996	0.000109203	281.764771
3.7995	3.171E-10	281.789293	0.0999999	0.000109756	281.789293
3.9995	3.179E-10	281.813837	0.1	0.000110305	281.813837
4.1995	3.235E-10	281.838348	0.1	0.000110853	281.838348
4.39949	3.379E-10	281.862931	0.1000001	0.0001114	281.862931
4.59951	3.459E-10	281.887439	0.1	0.000111945	281.887439
4.79949	3.433E-10	281.911967	0.1	0.000112488	281.911967
4.9995	3.506E-10	281.936634	0.0999999	0.000113028	281.936634
5.19951	3.444E-10	281.961169	0.1000001	0.000113565	281.961169
5.39949	3.581E-10	281.985775	0.1	0.000114096	281.985775
5.59949	3.811E-10	282.010288	0.1000001	0.00011463	282.010288
5.7995	3.637E-10	282.034813	0.1	0.000115159	282.034813
5.99947	3.444E-10	282.059329	0.1000001	0.000115685	282.059329
6.1995	3.652E-10	282.083839	0.1	0.000116209	282.083839
6.3995	5.21E-10	282.10836	0.1000002	0.000116729	282.10836
6.5995	4.025E-10	282.132869	0.0999998	0.000117247	282.132869
6.79951	3.756E-10	282.157397	0.0999999	0.000117761	282.157397
6.99949	3.825E-10	282.182016	0.0999998	0.000118271	282.182016
7.19949	3.992E-10	282.206555	0.0999999	0.000118781	282.206555
7.39949	3.334E-10	282.264594	0.0999999	0.000119284	282.264594
7.59951	3.977E-10	282.289118	0.1	0.000119788	282.289118
7.79952	3.803E-10	282.313626	0.1000001	0.000120288	282.313626
7.99949	3.695E-10	282.338153	0.1	0.000120784	282.338153
8.1995	3.931E-10	282.362723	0.0999999	0.000121279	282.362723
8.3995	3.998E-10	282.387237	0.0999999	0.000121769	282.387237
8.5995	4.073E-10	282.411757	0.1000001	0.000122259	282.411757
8.79951	3.931E-10	282.436264	0.1	0.000122747	282.436264
8.99949	3.931E-10	282.460786	0.1	0.000123226	282.460786
9.1995	2.637E-10	282.485294	0.1	0.000123709	282.485294
9.3995	3.961E-10	282.509808	0.1000001	0.000124193	282.509808
9.59947	4.009E-10	282.53431	0.0999998	0.000124673	282.53431
9.7995	4.002E-10	282.558837	0.0999999	0.000125148	282.558837
9.99949	4.055E-10	282.583339	0.1	0.000125626	282.583339
9.99949	3.687E-10	282.606745	0.1	0.000125625	282.606745
9.79951	2.912E-10	282.631261	0.0999999	0.00012515	282.631261
9.59949	2.25E-10	282.655838	0.1	0.000124678	282.655838
9.39952	1.936E-10	282.680456	0.0999999	0.0001242	282.680456
9.19951	1.932E-10	282.704968	0.1	0.000123718	282.704968
8.99951	2.073E-10	282.766117	0.0999999	0.000123236	282.766117
8.79951	1.507E-10	282.790628	0.1	0.00012275	282.790628
8.59951	1.46E-10	282.815152	0.1	0.000122255	282.815152
8.3995	1.059E-10	282.839665	0.0999999	0.000121757	282.839665
8.1995	9.82E-11	282.864234	0.1	0.000121259	282.864234
7.9995	1.039E-10	282.88874	0.0999999	0.000120758	282.88874
7.79949	9.51E-11	282.913261	0.0999999	0.000120252	282.913261
7.59951	6.38E-11	282.937862	0.1000001	0.000119744	282.937862
7.39948	4.7E-11	282.962377	0.1	0.000119231	282.962377
7.19951	5.46E-11	282.986905	0.1	0.000118719	282.986905
6.99949	5.56E-11	283.011439	0.0999999	0.000118206	283.011439
6.79952	2.17E-11	283.035972	0.1000001	0.000117689	283.035972
6.59951	1.6E-12	283.060435	0.0999999	0.000117169	283.060435
6.3995	3.27E-11	283.084966	0.1	0.000116645	283.084966
6.19951	2.32E-11	283.109475	0.1000001	0.000116123	283.109475
5.9995	-1.09E-11	283.134	0.0999998	0.000115592	283.134
5.79949	-3.9E-12	283.158522	0.1	0.000115062	283.158522
5.59953	-1.31E-11	283.183141	0.1000001	0.000114529	283.183141
5.39949	-1.54E-11	283.207656	0.0999998	0.000113991	283.207656
5.1995	3.63E-11	283.268003	0.0999998	0.000113455	283.268003
4.99949	5.4E-12	283.292544	0.0999999	0.000112912	283.292544
4.7995	-3.86E-11	283.317054	0.0999998	0.000112369	283.317054
4.59952	-4.43E-11	283.341571	0.1000002	0.000111823	283.341571
4.39951	-2.89E-11	283.366219	0.1	0.000111277	283.366219
4.19948	-4.08E-11	283.390723	0.0999999	0.000110727	283.390723
3.9995	-6.27E-11	283.41524	0.0999999	0.000110175	283.41524
3.79949	-7.63E-11	283.439761	0.1000001	0.000109624	283.439761
3.5995	-6.95E-11	283.464277	0.1	0.000109069	283.464277
3.39951	-5.77E-11	283.488796	0.0999999	0.000108517	283.488796
3.1995	1.28E-11	283.513298	0.0999997	0.000107963	283.513298
2.99949	-5.39E-11	283.537812	0.0999998	0.000107409	283.537812
2.79949	-8.89E-11	283.562334	0.1000002	0.000106856	283.562334
2.59952	-9.74E-11	283.586845	0.1	0.000106302	283.586845
2.39951	-7.4E-11	283.611431	0.1	0.000105751	283.611431
2.19952	-1.032E-10	283.63596	0.1000001	0.000105198	283.63596
1.99951	-1.246E-10	283.660489	0.1	0.000104649	283.660489
1.79952	-1.138E-10	283.685092	0.1	0.0001041	283.685092
1.59952	-1.006E-10	283.70962	0.1	0.000103552	283.70962
1.39953	-5.52E-11	283.769488	0.0999999	0.000103008	283.769488
1.19951	-1.208E-10	283.794032	0.1	0.000102463	283.794032
0.99952	-1.216E-10	283.818566	0.0999999	0.000101921	283.818566
0.79951	-1.268E-10	283.843087	0.0999998	0.000101378	283.843087
0.59951	-1.34E-10	283.867649	0.1000001	0.000100837	283.867649
0.3995	-2.465E-10	283.892168	0.0999998	0.0001003	283.892168
0.1995	-1.765E-10	283.916676	0.0999997	9.9763E-05	283.916676
-0.0005	-1.682E-10	283.941248	0.1000002	9.9229E-05	283.941248
-0.20049	-1.638E-10	283.965774	0.0999998	9.8697E-05	283.965774
-0.40049	-1.575E-10	283.990377	0.0999999	9.8175E-05	283.990377
-0.60049	-1.765E-10	284.014921	0.1000001	9.7659E-05	284.014921
-0.8005	-2.025E-10	284.039439	0.1	9.7149E-05	284.039439
-1.00049	-1.776E-10	284.063981	0.1	9.6652E-05	284.063981
-1.20049	-1.602E-10	284.088501	0.0999999	9.6166E-05	284.088501
-1.40048	-2.006E-10	284.113032	0.0999999	9.5687E-05	284.113032
-1.60048	-2.035E-10	284.137539	0.0999999	9.5212E-05	284.137539
-1.8005	-1.877E-10	284.162071	0.1	9.4744E-05	284.162071
-2.00049	-2.058E-10	284.186681	0.1000001	9.4275E-05	284.186681
-2.20047	-2.048E-10	284.211221	0.0999998	9.3804E-05	284.211221
-2.40051	-1.284E-10	284.270942	0.1	9.3338E-05	284.270942
-2.6005	-1.983E-10	284.295518	0.1	9.2866E-05	284.295518
-2.80049	-2.248E-10	284.320067	0.1	9.2397E-05	284.320067
-3.00047	-1.938E-10	284.344607	0.1000001	9.1924E-05	284.344607
-3.20048	-1.963E-10	284.369168	0.1	9.1449E-05	284.369168
-3.40048	-2.268E-10	284.393697	0.1	9.0975E-05	284.393697
-3.60049	-2.324E-10	284.418216	0.1000001	9.0499E-05	284.418216
-3.80049	-2.148E-10	284.442739	0.0999997	9.0024E-05	284.442739
-4.00048	-2.203E-10	284.467258	0.0999999	8.9545E-05	284.467258
-4.20048	-2.423E-10	284.491783	0.1000001	8.9066E-05	284.491783
-4.40047	-2.402E-10	284.519643	0.1000049	8.85064E-05	284.519643
-4.60047	-2.296E-10	284.544152	0.1000048	8.80261E-05	284.544152
-4.80045	-2.232E-10	284.568704	0.1000046	8.75426E-05	284.568704
-5.00048	-2.539E-10	284.593215	0.1000046	8.70597E-05	284.593215
-5.20048	-2.608E-10	284.617812	0.1000048	8.65748E-05	284.617812
-5.40049	-2.432E-10	284.642328	0.1000035	8.60857E-05	284.642328
-5.60049	-2.412E-10	284.666923	0.1000036	8.55975E-05	284.666923
-5.80047	-2.65E-10	284.691551	0.1000048	8.51079E-05	284.691551
-6.00049	-2.684E-10	284.716068	0.1000047	8.46142E-05	284.716068
-6.20048	-2.103E-10	284.775266	0.1000046	8.41234E-05	284.775266
-6.40048	-2.651E-10	284.799803	0.1000043	8.36259E-05	284.799803
-6.60048	-2.439E-10	284.824375	0.1000044	8.31292E-05	284.824375
-6.80048	-2.401E-10	284.848917	0.1000051	8.26306E-05	284.848917
-7.00048	-2.707E-10	284.873475	0.1000053	8.21287E-05	284.873475
-7.2005	-2.941E-10	284.898008	0.1000047	8.16241E-05	284.898008
-7.40049	-1.999E-10	284.922509	0.1000042	8.11195E-05	284.922509
-7.60048	-2.244E-10	284.94711	0.1000052	8.06133E-05	284.94711
-7.80047	-2.751E-10	284.971631	0.100006	8.0103E-05	284.971631
-8.00048	-2.752E-10	284.996179	0.1000055	7.95926E-05	284.996179
-8.20046	-2.918E-10	285.020684	0.1000059	7.90792E-05	285.020684
-8.4005	-2.868E-10	285.04523	0.100006	7.85639E-05	285.04523
-8.60049	-2.772E-10	285.069747	0.1000054	7.80464E-05	285.069747
-8.80047	-2.913E-10	285.09429	0.1000063	7.75268E-05	285.09429
-9.00048	-3.108E-10	285.118789	0.1000055	7.70044E-05	285.118789
-9.20047	-3.038E-10	285.143327	0.1000053	7.64804E-05	285.143327
-9.40048	-2.801E-10	285.167846	0.1000068	7.59544E-05	285.167846
-9.60049	-3.069E-10	285.19245	0.1000055	7.54267E-05	285.19245
-9.80048	-3.219E-10	285.216962	0.1000053	7.49001E-05	285.216962
-10.00047	-2.565E-10	285.274473	0.1000068	7.43787E-05	285.274473
-10.20047	-3.073E-10	285.299002	0.1000062	7.38449E-05	285.299002
-10.40049	-3.837E-10	285.323519	0.1000048	7.331E-05	285.323519
-10.60047	-2.969E-10	285.348036	0.1000056	7.27727E-05	285.348036
-10.80048	-3.231E-10	285.372628	0.1000056	7.22337E-05	285.372628
-11.00048	-3.373E-10	285.397137	0.100006	7.16931E-05	285.397137
-11.20048	-3.191E-10	285.42168	0.1000052	7.11489E-05	285.42168
-11.4005	-3.207E-10	285.446197	0.1000057	7.06026E-05	285.446197
-11.60049	-3.28E-10	285.470734	0.1000061	7.00539E-05	285.470734
-11.80047	-3.503E-10	285.495257	0.1000064	6.95025E-05	285.495257
-12.00046	-3.408E-10	285.519785	0.1000075	6.89499E-05	285.519785
#scan	iMeasureCycle=3	iMux=0	time=319.756	N=222	LocalTime=22/06/2023 09:14:11
#VGate(V)	IGate(A)	time(s)	VDrain(V)	IDrain(A)	time(s)
-12.00048	-7.08E-11	319.763486	0.1000062	6.90468E-05	319.763486
-11.8005	-2.09E-11	319.788364	0.1000055	6.96025E-05	319.788364
-11.60047	-7.8E-12	319.814063	0.1000055	7.01568E-05	319.814063
-11.40049	3.26E-11	319.838591	0.1000053	7.07088E-05	319.838591
-11.2005	4.18E-11	319.863102	0.1000066	7.1258E-05	319.863102
-11.00048	4.26E-11	319.88763	0.1000064	7.18044E-05	319.88763
-10.80048	6.24E-11	319.912163	0.1000062	7.2348E-05	319.912163
-10.6005	8.58E-11	319.9367	0.1000056	7.28893E-05	319.9367
-10.40049	7.65E-11	319.961203	0.1000053	7.34284E-05	319.961203
-10.2005	8.11E-11	319.985814	0.1000059	7.39671E-05	319.985814
-10.00047	1.118E-10	320.010349	0.1000061	7.45026E-05	320.010349
-9.80049	1.012E-10	320.034959	0.1000045	7.50352E-05	320.034959
-9.60049	1.01E-10	320.059489	0.1000054	7.55663E-05	320.059489
-9.40051	1.088E-10	320.084026	0.1000058	7.60972E-05	320.084026
-9.20047	1.404E-10	320.108546	0.1000053	7.66251E-05	320.108546
-9.00048	1.241E-10	320.133072	0.1000053	7.71449E-05	320.133072
-8.80049	1.252E-10	320.157595	0.1000051	7.76654E-05	320.157595
-8.60048	2.697E-10	320.182115	0.1000064	7.81833E-05	320.182115
-8.4005	1.587E-10	320.206628	0.1000057	7.86958E-05	320.206628
-8.2005	1.543E-10	320.231158	0.1000052	7.92086E-05	320.231158
-8.00048	1.733E-10	320.255761	0.1000058	7.97187E-05	320.255761
-7.80048	1.693E-10	320.280305	0.1000058	8.02278E-05	320.280305
-7.60048	1.279E-10	320.326815	0.1000061	8.07319E-05	320.326815
-7.4005	1.585E-10	320.35138	0.1000045	8.12376E-05	320.35138
-7.20048	1.696E-10	320.37595	0.1000055	8.17414E-05	320.37595
-7.00051	1.754E-10	320.400462	0.100006	8.22442E-05	320.400462
-6.80048	1.8E-10	320.425022	0.1000057	8.27448E-05	320.425022
-6.60049	1.863E-10	320.449531	0.1000052	8.32414E-05	320.449531
-6.4005	1.842E-10	320.47405	0.1000058	8.37402E-05	320.47405
-6.20049	-7.78E-11	320.498562	0.1000053	8.42351E-05	320.498562
-6.00051	1.827E-10	320.523087	0.1000053	8.47279E-05	320.523087
-5.80048	1.751E-10	320.547611	0.1000049	8.52205E-05	320.547611
-5.60048	2.06E-10	320.572123	0.1000049	8.57106E-05	320.572123
-5.4005	2.173E-10	320.596671	0.1000047	8.61984E-05	320.596671
-5.20052	1.963E-10	320.62118	0.1000057	8.66861E-05	320.62118
-5.00049	2.018E-10	320.645707	0.1000058	8.71727E-05	320.645707
-4.80047	2.257E-10	320.670215	0.100005	8.76559E-05	320.670215
-4.60048	2.151E-10	320.69479	0.1000049	8.81382E-05	320.69479
-4.40052	2.24E-10	320.719332	0.1000038	8.86189E-05	320.719332
-4.20049	2.235E-10	320.743943	0.1000055	8.91E-05	320.743943
-4.00051	2.303E-10	320.768475	0.1000043	8.95774E-05	320.768475
-3.8005	1.621E-10	320.828456	0.1000047	9.00527E-05	320.828456
-3.60051	2.211E-10	320.852982	0.100005	9.05302E-05	320.852982
-3.40051	2.33E-10	320.877503	0.1000044	9.10062E-05	320.877503
-3.20052	2.36E-10	320.90232	0.1000042	9.14794E-05	320.90232
-3.0005	2.204E-10	320.926972	0.1000051	9.19539E-05	320.926972
-2.80051	2.521E-10	320.951492	0.1000053	9.24266E-05	320.951492
-2.6005	2.54E-10	320.976008	0.1000053	9.28984E-05	320.976008
-2.40051	2.444E-10	321.000526	0.1000037	9.3369E-05	321.000526
-2.2005	2.484E-10	321.025083	0.100004	9.38389E-05	321.025083
-2.00051	2.732E-10	321.049601	0.1000042	9.43092E-05	321.049601
-1.80049	2.583E-10	321.074126	0.1000041	9.47801E-05	321.074126
-1.60048	2.579E-10	321.098639	0.1000042	9.52537E-05	321.098639
-1.4005	2.708E-10	321.123176	0.100004	9.57294E-05	321.123176
-1.2005	2.667E-10	321.147706	0.1000042	9.62156E-05	321.147706
-1.0005	2.778E-10	321.172225	0.1000043	9.67086E-05	321.172225
-0.80051	2.82E-10	321.196747	0.1000038	9.72096E-05	321.196747
-0.60047	2.803E-10	321.221498	0.1000036	9.77223E-05	321.221498
-0.40051	2.898E-10	321.246111	0.1000041	9.82421E-05	321.246111
-0.2005	2.794E-10	321.270633	0.1000052	9.87694E-05	321.270633
-0.0005	2.393E-10	321.330134	0.1000047	9.92951E-05	321.330134
0.1995	2.668E-10	321.354705	0.1000042	9.98287E-05	321.354705
0.3995	2.818E-10	321.379237	0.1000041	0.0001003661	321.379237
0.59952	3.018E-10	321.403729	0.1000038	0.0001009037	321.403729
0.7995	2.828E-10	321.428376	0.100005	0.0001014448	321.428376
0.9995	2.923E-10	321.452899	0.1000038	0.000101983	321.452899
1.19949	3.001E-10	321.477437	0.1000032	0.0001025254	321.477437
1.39951	3.17E-10	321.50195	0.1000036	0.0001030691	321.50195
1.5995	3.074E-10	321.526494	0.1000037	0.0001036131	321.526494
1.79948	3.043E-10	321.551012	0.100004	0.0001041616	321.551012
1.9995	4.188E-10	321.597964	0.0999998	0.000104781	321.597964
2.19951	3.021E-10	321.622519	0.0999999	0.000105334	321.622519
2.39949	3.246E-10	321.647046	0.1	0.000105884	321.647046
2.59951	3.215E-10	321.671566	0.1	0.000106435	321.671566
2.79949	3.288E-10	321.696122	0.0999999	0.000106986	321.696122
2.99952	3.346E-10	321.720635	0.0999999	0.000107536	321.720635
3.1995	3.351E-10	321.745231	0.0999999	0.000108089	321.745231
3.39951	3.429E-10	321.769744	0.0999997	0.000108638	321.769744
3.59952	2.741E-10	321.833178	0.0999997	0.000109181	321.833178
3.7995	3.153E-10	321.857747	0.1	0.000109732	321.857747
3.99947	2.533E-10	321.88226	0.1	0.000110283	321.88226
4.19949	3.05E-10	321.906783	0.1000001	0.000110831	321.906783
4.39949	3.244E-10	321.931334	0.0999999	0.000111377	321.931334
4.5995	3.448E-10	321.955879	0.1	0.000111922	321.955879
4.79952	3.499E-10	321.980393	0.1000002	0.000112465	321.980393
4.9995	3.409E-10	322.005	0.1	0.000113007	322.005
5.19946	3.534E-10	322.029571	0.0999999	0.000113542	322.029571
5.39948	3.66E-10	322.054089	0.1	0.000114078	322.054089
5.59948	3.538E-10	322.078607	0.0999999	0.000114611	322.078607
5.7995	3.508E-10	322.103125	0.0999999	0.000115138	322.103125
5.99948	3.703E-10	322.127638	0.1	0.000115666	322.127638
6.19951	3.708E-10	322.152166	0.1	0.000116189	322.152166
6.39949	3.833E-10	322.17667	0.0999998	0.000116709	322.17667
6.59949	3.707E-10	322.201178	0.0999998	0.000117226	322.201178
6.79951	3.813E-10	322.225685	0.1000002	0.000117741	322.225685
6.99949	3.778E-10	322.250301	0.0999999	0.000118254	322.250301
7.19949	3.697E-10	322.27482	0.1000001	0.000118764	322.27482
7.39949	3.322E-10	322.333105	0.0999999	0.000119265	322.333105
7.5995	3.513E-10	322.357715	0.0999999	0.000119768	322.357715
7.7995	3.698E-10	322.382247	0.1000001	0.00012027	322.382247
7.99951	3.744E-10	322.406764	0.1	0.000120767	322.406764
8.19949	3.896E-10	322.431329	0.1	0.000121262	322.431329
8.39951	3.838E-10	322.455854	0.0999999	0.000121754	322.455854
8.5995	3.956E-10	322.480393	0.0999999	0.000122242	322.480393
8.7995	3.988E-10	322.504906	0.0999999	0.000122729	322.504906
8.99948	3.972E-10	322.529447	0.0999998	0.00012321	322.529447
9.1995	4.015E-10	322.553967	0.1000001	0.000123692	322.553967
9.3995	4.194E-10	322.578506	0.1000001	0.000124176	322.578506
9.59948	4.075E-10	322.603014	0.0999998	0.000124657	322.603014
9.79952	4.047E-10	322.6276	0.1	0.000125135	322.6276
9.99948	4.238E-10	322.652124	0.1	0.000125611	322.652124
9.99947	3.586E-10	322.675477	0.1000001	0.00012561	322.675477
9.79952	2.766E-10	322.700036	0.1000001	0.000125137	322.700036
9.5995	2.488E-10	322.724575	0.1	0.000124663	322.724575
9.39951	2.057E-10	322.749181	0.1000002	0.000124186	322.749181
9.19951	1.793E-10	322.773714	0.1000001	0.000123706	322.773714
8.99952	1.967E-10	322.830573	0.1	0.000123225	322.830573
8.79952	1.482E-10	322.85509	0.1	0.000122736	322.85509
8.5995	1.334E-10	322.879623	0.1000001	0.000122242	322.879623
8.3995	1.216E-10	322.904128	0.0999999	0.000121744	322.904128
8.19948	9.83E-11	322.928735	0.1	0.000121247	322.928735
7.9995	8.21E-11	322.953252	0.1	0.000120744	322.953252
7.79952	9.96E-11	322.977781	0.1000001	0.000120237	322.977781
7.59951	1.873E-10	323.002358	0.1	0.000119728	323.002358
7.39953	6.88E-11	323.026963	0.1	0.000119219	323.026963
7.19954	6.23E-11	323.05149	0.1	0.000118707	323.05149
6.9995	5.01E-11	323.075997	0.0999999	0.00011819	323.075997
6.79951	3.35E-11	323.100497	0.1000001	0.000117675	323.100497
6.59952	1.77E-11	323.125016	0.1	0.000117155	323.125016
6.39949	2.31E-11	323.149536	0.1000001	0.000116632	323.149536
6.19951	1.97E-11	323.174061	0.0999999	0.000116107	323.174061
5.99951	1.2E-12	323.19858	0.1	0.00011558	323.19858
5.7995	2E-13	323.223109	0.0999999	0.000115046	323.223109
5.59948	-1.61E-11	323.247664	0.1	0.000114511	323.247664
5.3995	-2.27E-11	323.272188	0.1	0.000113976	323.272188
5.19949	1.04E-11	323.320313	0.0999999	0.000113437	323.320313
4.9995	-3.33E-11	323.34489	0.0999999	0.000112896	323.34489
4.79949	-3.8E-11	323.369551	0.0999999	0.000112352	323.369551
4.59951	-3.19E-11	323.394083	0.1000002	0.000111807	323.394083
4.39949	-3.14E-11	323.420261	0.0999999	0.00011126	323.420261
4.19949	-6.61E-11	323.444806	0.1	0.00011071	323.444806
3.99951	-7.79E-11	323.469364	0.0999998	0.000110159	323.469364
3.79949	-4.82E-11	323.493872	0.0999999	0.000109606	323.493872
3.59949	-6.99E-11	323.518406	0.0999999	0.000109054	323.518406
3.39949	-9.17E-11	323.542937	0.0999998	0.0001085	323.542937
3.19951	-9.19E-11	323.567465	0.0999999	0.000107944	323.567465
2.99951	-8.49E-11	323.591963	0.0999998	0.00010739	323.591963
2.7995	-9.16E-11	323.616487	0.1	0.000106837	323.616487
2.59951	-1.037E-10	323.641008	0.0999999	0.000106285	323.641008
2.3995	-1.012E-10	323.665534	0.1	0.000105731	323.665534
2.1995	-1.015E-10	323.690058	0.0999998	0.000105179	323.690058
1.99949	-1.254E-10	323.714642	0.1	0.000104629	323.714642
1.79949	-1.156E-10	323.739165	0.1000002	0.000104081	323.739165
1.59951	-1.146E-10	323.763774	0.1	0.000103533	323.763774
1.39952	-1.364E-10	323.788311	0.1	0.000102985	323.788311
1.1995	-8.65E-11	323.833594	0.0999999	0.000102445	323.833594
0.99951	-1.227E-10	323.858208	0.0999999	0.000101901	323.858208
0.7995	-1.334E-10	323.88274	0.1000001	0.00010136	323.88274
0.59951	-1.367E-10	323.90725	0.1	0.000100821	323.90725
0.39952	-1.578E-10	323.931863	0.1000001	0.000100282	323.931863
0.1995	-1.301E-10	323.956386	0.0999999	9.9745E-05	323.956386
-0.00048	-1.536E-10	323.980905	0.0999999	9.9208E-05	323.980905
-0.2005	-1.785E-10	324.005492	0.0999999	9.8681E-05	324.005492
-0.40049	-1.642E-10	324.030312	0.1	9.8155E-05	324.030312
-0.60047	-1.562E-10	324.05485	0.1	9.7639E-05	324.05485
-0.80051	-1.798E-10	324.079377	0.0999996	9.7131E-05	324.079377
-1.00048	-1.854E-10	324.103915	0.1	9.6633E-05	324.103915
-1.20049	-1.878E-10	324.128433	0.1000002	9.6146E-05	324.128433
-1.40051	-1.826E-10	324.152983	0.1	9.5667E-05	324.152983
-1.60048	-1.859E-10	324.177505	0.0999998	9.5195E-05	324.177505
-1.80049	-2.089E-10	324.202032	0.1000002	9.4724E-05	324.202032
-2.00049	-1.919E-10	324.226542	0.0999998	9.4255E-05	324.226542
-2.20049	-2.066E-10	324.25104	0.0999997	9.3787E-05	324.25104
-2.40052	-2.187E-10	324.27557	0.1	9.3317E-05	324.27557
-2.60049	-1.508E-10	324.333274	0.0999999	9.2851E-05	324.333274
-2.8005	-1.809E-10	324.357827	0.0999997	9.238E-05	324.357827
-3.00049	-2.044E-10	324.382389	0.1	9.1906E-05	324.382389
-3.20051	-1.015E-10	324.406902	0.0999998	9.1434E-05	324.406902
-3.4005	-1.922E-10	324.431512	0.0999998	9.096E-05	324.431512
-3.60049	-2.075E-10	324.456061	0.0999998	9.0485E-05	324.456061
-3.80047	-2.133E-10	324.480579	0.1000001	9.001E-05	324.480579
-4.00048	-2.252E-10	324.505108	0.1000002	8.9532E-05	324.505108
-4.20048	-2.357E-10	324.529618	0.1000002	8.9054E-05	324.529618
-4.40047	-2.003E-10	324.55748	0.100005	8.84954E-05	324.55748
-4.60047	-2.426E-10	324.582005	0.1000046	8.80145E-05	324.582005
-4.80046	-2.445E-10	324.606529	0.1000049	8.75312E-05	324.606529
-5.00048	-2.35E-10	324.631042	0.1000053	8.70481E-05	324.631042
-5.20046	-2.455E-10	324.655565	0.1000057	8.65628E-05	324.655565
-5.4005	-2.502E-10	324.680084	0.1000059	8.60775E-05	324.680084
-5.60048	-3.678E-10	324.704658	0.1000051	8.55874E-05	324.704658
-5.80048	-2.893E-10	324.729172	0.1000046	8.50956E-05	324.729172
-6.0005	-2.669E-10	324.753948	0.1000055	8.46048E-05	324.753948
-6.20051	-2.525E-10	324.778482	0.1000046	8.41096E-05	324.778482
-6.40048	-1.939E-10	324.842402	0.1000052	8.36171E-05	324.842402
-6.60051	-2.659E-10	324.866918	0.1000039	8.31185E-05	324.866918
-6.80047	-2.59E-10	324.891431	0.1000051	8.26197E-05	324.891431
-7.00047	-2.513E-10	324.915955	0.1000055	8.21178E-05	324.915955
-7.20049	-2.655E-10	324.940518	0.1000054	8.16142E-05	324.940518
-7.40049	-2.815E-10	324.965047	0.1000058	8.11096E-05	324.965047
-7.60045	-2.893E-10	324.989572	0.1000055	8.06025E-05	324.989572
-7.80048	-2.717E-10	325.014088	0.1000048	8.00912E-05	325.014088
-8.00047	-2.842E-10	325.038674	0.1000056	7.9581E-05	325.038674
-8.20048	-3.02E-10	325.06319	0.1000056	7.90691E-05	325.06319
-8.40048	-2.951E-10	325.087718	0.1000052	7.85524E-05	325.087718
-8.60048	-2.896E-10	325.112225	0.1000052	7.80349E-05	325.112225
-8.80048	-2.945E-10	325.136765	0.1000062	7.75153E-05	325.136765
-9.00049	-3.072E-10	325.161287	0.1000058	7.69931E-05	325.161287
-9.20047	-3.069E-10	325.185814	0.1000056	7.64698E-05	325.185814
-9.40047	-3.081E-10	325.210326	0.1000061	7.59429E-05	325.210326
-9.6005	-3.05E-10	325.234867	0.1000058	7.54162E-05	325.234867
-9.80049	-3.05E-10	325.259522	0.100005	7.48882E-05	325.259522
-10.00049	-3.035E-10	325.284073	0.1000052	7.43596E-05	325.284073
-10.20047	-2.768E-10	325.342954	0.1000055	7.38341E-05	325.342954
-10.40046	-2.879E-10	325.367706	0.1000059	7.33009E-05	325.367706
-10.60049	-3.006E-10	325.392246	0.100006	7.27636E-05	325.392246
-10.80046	-3.006E-10	325.416756	0.1000057	7.22231E-05	325.416756
-11.00046	-3.232E-10	325.441344	0.1000052	7.16814E-05	325.441344
-11.20048	-3.235E-10	325.46586	0.1000055	7.11373E-05	325.46586
-11.40049	-3.271E-10	325.490398	0.1000063	7.05905E-05	325.490398
-11.6005	-3.319E-10	325.514901	0.1000052	7.00414E-05	325.514901
-11.8005	-3.294E-10	325.539442	0.1000045	6.94895E-05	325.539442
-12.00049	-3.373E-10	325.563954	0.1000055	6.89359E-05	325.563954
