#scan	iMeasureCycle=1	iMux=0	time=0.037	N=222	LocalTime=22/06/2023 02:02:49
#VGate(V)	IGate(A)	time(s)	VDrain(V)	IDrain(A)	time(s)
-12.0005	-3.1689E-09	0.062929	0.1000064	5.50476E-05	0.062929
-11.80051	-3.0007E-09	0.087787	0.1000071	5.56514E-05	0.087787
-11.6005	-1.1552E-09	0.112315	0.1000068	5.62535E-05	0.112315
-11.40052	-5.031E-10	0.136827	0.1000052	5.68522E-05	0.136827
-11.2005	-3.315E-10	0.161443	0.1000063	5.74489E-05	0.161443
-11.00049	-2.286E-10	0.185968	0.1000066	5.80437E-05	0.185968
-10.80047	-1.56E-10	0.210485	0.1000058	5.86371E-05	0.210485
-10.60051	-9.44E-11	0.235016	0.1000071	5.92271E-05	0.235016
-10.40047	-8.08E-11	0.259639	0.1000071	5.98185E-05	0.259639
-10.20049	-3.58E-11	0.284238	0.1000068	6.0405E-05	0.284238
-10.00048	1.471E-10	0.308746	0.1000056	6.09901E-05	0.308746
-9.80048	-1.07E-11	0.333284	0.100007	6.15756E-05	0.333284
-9.60051	2.77E-11	0.357806	0.1000055	6.21572E-05	0.357806
-9.40048	6.17E-11	0.382346	0.1000066	6.27388E-05	0.382346
-9.20051	4.6E-11	0.406854	0.1000069	6.33177E-05	0.406854
-9.00048	5.05E-11	0.431366	0.1000061	6.38905E-05	0.431366
-8.80048	7.61E-11	0.455886	0.1000068	6.44633E-05	0.455886
-8.6005	8.19E-11	0.480421	0.1000062	6.50301E-05	0.480421
-8.4005	1.012E-10	0.504919	0.1000067	6.5597E-05	0.504919
-8.20047	8.95E-11	0.529433	0.100007	6.61617E-05	0.529433
-8.0005	1.054E-10	0.553953	0.1000063	6.67245E-05	0.553953
-7.80049	1.163E-10	0.578476	0.1000064	6.72851E-05	0.578476
-7.60051	8.49E-11	0.626096	0.1000058	6.7841E-05	0.626096
-7.40048	1.08E-10	0.650775	0.1000062	6.84006E-05	0.650775
-7.20048	1.077E-10	0.675308	0.1000067	6.89573E-05	0.675308
-7.00051	1.482E-10	0.699837	0.1000068	6.95116E-05	0.699837
-6.80049	3.43E-11	0.724411	0.1000058	7.00623E-05	0.724411
-6.60048	1.211E-10	0.748936	0.1000047	7.06135E-05	0.748936
-6.40051	1.178E-10	0.773489	0.1000049	7.11635E-05	0.773489
-6.2005	1.689E-10	0.798062	0.1000056	7.17101E-05	0.798062
-6.00051	1.879E-10	0.822588	0.1000056	7.22565E-05	0.822588
-5.80049	1.641E-10	0.847092	0.1000051	7.27993E-05	0.847092
-5.60049	1.63E-10	0.871636	0.1000057	7.33418E-05	0.871636
-5.4005	1.918E-10	0.896131	0.1000056	7.38819E-05	0.896131
-5.20048	1.901E-10	0.92066	0.1000052	7.44219E-05	0.92066
-5.00049	1.964E-10	0.945255	0.1000059	7.49588E-05	0.945255
-4.80049	2.078E-10	0.969805	0.1000053	7.54939E-05	0.969805
-4.6005	1.942E-10	0.994309	0.1000059	7.60295E-05	0.994309
-4.40049	2.09E-10	1.018845	0.1000055	7.65626E-05	1.018845
-4.20048	2.496E-10	1.043423	0.1000049	7.70941E-05	1.043423
-4.00047	2.182E-10	1.068033	0.1000053	7.7625E-05	1.068033
-3.8005	1.564E-10	1.127624	0.1000057	7.81499E-05	1.127624
-3.60049	2.128E-10	1.15217	0.1000047	7.86804E-05	1.15217
-3.40049	2.206E-10	1.176698	0.1000049	7.92091E-05	1.176698
-3.20051	2.249E-10	1.201225	0.1000053	7.97363E-05	1.201225
-3.0005	2.35E-10	1.225796	0.1000049	8.02638E-05	1.225796
-2.80051	2.478E-10	1.250317	0.1000053	8.07894E-05	1.250317
-2.60051	2.274E-10	1.274873	0.1000041	8.13142E-05	1.274873
-2.40051	2.552E-10	1.299459	0.1000052	8.18379E-05	1.299459
-2.20051	2.775E-10	1.323971	0.1000049	8.23628E-05	1.323971
-2.0005	2.618E-10	1.34849	0.1000046	8.2884E-05	1.34849
-1.80052	2.468E-10	1.373028	0.1000051	8.34073E-05	1.373028
-1.60049	2.662E-10	1.397538	0.100005	8.39294E-05	1.397538
-1.40051	2.965E-10	1.422073	0.1000047	8.44544E-05	1.422073
-1.2005	2.725E-10	1.446599	0.1000058	8.4985E-05	1.446599
-1.0005	2.676E-10	1.471147	0.1000044	8.55201E-05	1.471147
-0.80051	3.018E-10	1.495672	0.1000044	8.60693E-05	1.495672
-0.6005	3.036E-10	1.520207	0.1000044	8.66288E-05	1.520207
-0.4005	3.008E-10	1.544708	0.1000037	8.71978E-05	1.544708
-0.20049	2.921E-10	1.569248	0.1000044	8.77786E-05	1.569248
-0.00051	2.535E-10	1.629378	0.1000046	8.83583E-05	1.629378
0.19949	2.589E-10	1.653898	0.1000048	8.89547E-05	1.653898
0.39949	2.902E-10	1.678503	0.1000039	8.95518E-05	1.678503
0.5995	3.261E-10	1.703024	0.1000046	9.01524E-05	1.703024
0.79948	3.57E-10	1.727603	0.1000043	9.07552E-05	1.727603
0.99948	3.185E-10	1.752115	0.1000043	9.136E-05	1.752115
1.19947	3.32E-10	1.776672	0.1000037	9.19676E-05	1.776672
1.39951	3.397E-10	1.801227	0.1000049	9.25768E-05	1.801227
1.5995	3.462E-10	1.825757	0.1000034	9.31889E-05	1.825757
1.79949	3.334E-10	1.850273	0.100005	9.38037E-05	1.850273
1.99949	3.33E-10	1.874827	0.1000041	9.44172E-05	1.874827
2.19951	3.538E-10	1.899338	0.1000051	9.5036E-05	1.899338
2.39952	3.577E-10	1.923871	0.1000043	9.5653E-05	1.923871
2.59952	3.668E-10	1.948383	0.1000054	9.62727E-05	1.948383
2.79948	3.457E-10	1.972985	0.1000043	9.68929E-05	1.972985
2.99949	3.567E-10	1.997517	0.1000041	9.75136E-05	1.997517
3.19949	3.692E-10	2.02203	0.1000039	9.81339E-05	2.02203
3.39948	3.781E-10	2.046549	0.1000047	9.87533E-05	2.046549
3.59951	3.597E-10	2.071113	0.1000048	9.93745E-05	2.071113
3.79951	1.557E-10	2.130837	0.1000047	9.9985E-05	2.130837
3.99949	3.291E-10	2.155369	0.1000031	0.0001006033	2.155369
4.1995	3.472E-10	2.179989	0.1000034	0.0001012187	2.179989
4.3995	3.675E-10	2.204505	0.1000033	0.0001018311	2.204505
4.5995	3.694E-10	2.229095	0.1000039	0.0001024436	2.229095
4.79953	3.55E-10	2.253618	0.1000038	0.0001030521	2.253618
4.9995	3.793E-10	2.278173	0.1000037	0.0001036566	2.278173
5.19949	3.883E-10	2.302774	0.1000034	0.0001042596	2.302774
5.39949	3.389E-10	2.332479	0.1000001	0.000104934	2.332479
5.5995	3.862E-10	2.356989	0.1000004	0.000105529	2.356989
5.7995	4.03E-10	2.381504	0.1000001	0.000106123	2.381504
5.99947	3.999E-10	2.406026	0.0999997	0.00010671	2.406026
6.19951	3.873E-10	2.430539	0.0999997	0.000107293	2.430539
6.39949	4.009E-10	2.45505	0.1000002	0.000107875	2.45505
6.59951	4.203E-10	2.479591	0.1	0.000108453	2.479591
6.79949	4.147E-10	2.504129	0.0999999	0.000109027	2.504129
6.99949	4E-10	2.528649	0.1	0.000109597	2.528649
7.19948	4.162E-10	2.553177	0.0999999	0.000110164	2.553177
7.39949	4.18E-10	2.577702	0.0999998	0.000110725	2.577702
7.59951	3.686E-10	2.635339	0.0999999	0.000111281	2.635339
7.79952	4.047E-10	2.659936	0.1	0.00011184	2.659936
7.9995	4.245E-10	2.684487	0.1000002	0.000112391	2.684487
8.19951	4.203E-10	2.709007	0.1000003	0.000112941	2.709007
8.39949	4.062E-10	2.733593	0.0999999	0.000113488	2.733593
8.59948	4.288E-10	2.758106	0.0999999	0.000114029	2.758106
8.79951	4.382E-10	2.78265	0.0999998	0.000114569	2.78265
8.99952	4.479E-10	2.807281	0.1	0.000115104	2.807281
9.19948	4.331E-10	2.831825	0.1000001	0.000115639	2.831825
9.39951	4.283E-10	2.856342	0.0999999	0.000116175	2.856342
9.59948	4.584E-10	2.880888	0.1	0.000116703	2.880888
9.79948	4.714E-10	2.905392	0.0999999	0.000117231	2.905392
9.9995	4.416E-10	2.929924	0.1000001	0.000117758	2.929924
9.99948	3.845E-10	2.953264	0.1	0.000117757	2.953264
9.79952	3.129E-10	2.977878	0.0999998	0.00011723	2.977878
9.59948	2.721E-10	3.002395	0.0999998	0.000116704	3.002395
9.3995	2.393E-10	3.026932	0.1000002	0.000116175	3.026932
9.1995	2.159E-10	3.051442	0.1	0.00011564	3.051442
8.99948	1.959E-10	3.076069	0.1000001	0.000115105	3.076069
8.79951	3.857E-10	3.134265	0.1	0.000114564	3.134265
8.59951	1.802E-10	3.158768	0.1	0.000114012	3.158768
8.39951	1.724E-10	3.183306	0.1	0.000113463	3.183306
8.19948	1.35E-10	3.207811	0.0999998	0.000112905	3.207811
7.99948	1.207E-10	3.232379	0.0999998	0.000112348	3.232379
7.7995	1.016E-10	3.256907	0.0999997	0.000111786	3.256907
7.59949	9.62E-11	3.281534	0.0999999	0.000111219	3.281534
7.39951	9.39E-11	3.306152	0.0999999	0.000110652	3.306152
7.19951	6.54E-11	3.330677	0.1000002	0.000110082	3.330677
6.99949	4.03E-11	3.355201	0.0999998	0.000109507	3.355201
6.79949	4.9E-11	3.379724	0.1	0.00010893	3.379724
6.59948	5.99E-11	3.404247	0.1	0.000108348	3.404247
6.39951	2.59E-11	3.428759	0.0999998	0.000107766	3.428759
6.1995	1.7E-12	3.453348	0.1000001	0.000107177	3.453348
5.9995	2.39E-11	3.47787	0.0999999	0.000106587	3.47787
5.79952	1.04E-11	3.50241	0.1000001	0.000105994	3.50241
5.59952	-8.6E-12	3.526914	0.0999999	0.000105393	3.526914
5.3995	-1.729E-10	3.55146	0.0999999	0.000104792	3.55146
5.1995	-3.64E-11	3.57597	0.1000001	0.000104186	3.57597
4.99951	3.67E-11	3.650031	0.1000001	0.000103582	3.650031
4.7995	-1.7E-11	3.674572	0.1	0.000102971	3.674572
4.59949	-2.42E-11	3.699103	0.0999999	0.000102358	3.699103
4.3995	-3.55E-11	3.72364	0.0999999	0.000101739	3.72364
4.19948	-2.68E-11	3.748217	0.0999998	0.000101122	3.748217
3.99951	-6.49E-11	3.77275	0.1	0.000100501	3.77275
3.79949	-7.59E-11	3.797326	0.1	9.988E-05	3.797326
3.59949	-5.32E-11	3.821882	0.0999998	9.9255E-05	3.821882
3.3995	-6.56E-11	3.846385	0.1	9.8633E-05	3.846385
3.19952	-8.37E-11	3.87092	0.1000001	9.8008E-05	3.87092
2.99949	-1.088E-10	3.895444	0.0999998	9.7385E-05	3.895444
2.79951	-8.66E-11	3.919966	0.1000001	9.6761E-05	3.919966
2.59951	-8.14E-11	3.944479	0.0999999	9.6137E-05	3.944479
2.3995	-1.165E-10	3.968993	0.0999997	9.5515E-05	3.968993
2.1995	-1.19E-10	3.993593	0.1000002	9.4893E-05	3.993593
1.9995	-1.045E-10	4.018116	0.0999999	9.4272E-05	4.018116
1.79951	-1.236E-10	4.042628	0.1000001	9.3654E-05	4.042628
1.5995	-1.347E-10	4.067137	0.1	9.304E-05	4.067137
1.3995	-1.242E-10	4.091658	0.0999999	9.2425E-05	4.091658
1.1995	-6.72E-11	4.138192	0.0999999	9.1817E-05	4.138192
0.99951	-1.174E-10	4.162712	0.1	9.1208E-05	4.162712
0.79949	-1.456E-10	4.187256	0.1000002	9.06E-05	4.187256
0.59951	-1.491E-10	4.211777	0.1	8.9996E-05	4.211777
0.3995	-1.461E-10	4.236354	0.1	8.9393E-05	4.236354
0.19951	-1.614E-10	4.260868	0.0999999	8.8794E-05	4.260868
-0.0005	-1.5E-10	4.285407	0.0999998	8.82E-05	4.285407
-0.20051	-1.64E-10	4.309952	0.0999998	8.7614E-05	4.309952
-0.40047	-1.344E-10	4.337899	0.1000049	8.69584E-05	4.337899
-0.60048	-1.653E-10	4.362442	0.100005	8.63949E-05	4.362442
-0.8005	-1.86E-10	4.386963	0.1000042	8.58422E-05	4.386963
-1.0005	-1.938E-10	4.411483	0.1000048	8.53029E-05	4.411483
-1.20049	-1.926E-10	4.435996	0.1000046	8.4772E-05	4.435996
-1.40049	-2.004E-10	4.460505	0.1000051	8.42456E-05	4.460505
-1.6005	-1.853E-10	4.485043	0.1000054	8.37238E-05	4.485043
-1.80048	-2.037E-10	4.509639	0.1000049	8.32017E-05	4.509639
-2.0005	2.16E-11	4.534154	0.1000048	8.26798E-05	4.534154
-2.20052	-1.935E-10	4.558682	0.100005	8.21589E-05	4.558682
-2.4005	-2.01E-10	4.583191	0.1000058	8.16353E-05	4.583191
-2.60049	-1.493E-10	4.642089	0.1000053	8.11149E-05	4.642089
-2.80048	-1.868E-10	4.6667	0.1000052	8.05903E-05	4.6667
-3.00048	-2.096E-10	4.691225	0.1000059	8.00647E-05	4.691225
-3.20049	-2.283E-10	4.715754	0.1000054	7.95389E-05	4.715754
-3.40051	-2.156E-10	4.740327	0.1000056	7.90121E-05	4.740327
-3.6005	-2.204E-10	4.764866	0.100006	7.8484E-05	4.764866
-3.80046	-2.272E-10	4.789407	0.100006	7.79553E-05	4.789407
-4.0005	-2.434E-10	4.813974	0.1000052	7.74255E-05	4.813974
-4.20047	-2.445E-10	4.838482	0.1000061	7.68947E-05	4.838482
-4.40049	-2.42E-10	4.863006	0.1000061	7.63611E-05	4.863006
-4.6005	-2.42E-10	4.887531	0.1000049	7.58272E-05	4.887531
-4.80048	-2.665E-10	4.912069	0.1000054	7.52912E-05	4.912069
-5.00049	-2.671E-10	4.936588	0.100005	7.47555E-05	4.936588
-5.20049	-3.495E-10	4.961108	0.1000049	7.42163E-05	4.961108
-5.40048	-2.752E-10	4.985713	0.1000048	7.3676E-05	4.985713
-5.60049	-2.829E-10	5.010252	0.1000058	7.31351E-05	5.010252
-5.80051	-2.94E-10	5.034784	0.1000049	7.25904E-05	5.034784
-6.00051	-2.849E-10	5.059292	0.1000055	7.20465E-05	5.059292
-6.20048	-2.705E-10	5.083817	0.1000061	7.15002E-05	5.083817
-6.4005	-2.109E-10	5.140762	0.1000053	7.09525E-05	5.140762
-6.60048	-2.56E-10	5.165297	0.1000058	7.04007E-05	5.165297
-6.80048	-2.915E-10	5.189815	0.1000055	6.98486E-05	5.189815
-7.00048	-2.715E-10	5.214424	0.1000046	6.92936E-05	5.214424
-7.2005	-2.861E-10	5.239011	0.1000048	6.87374E-05	5.239011
-7.40049	-2.941E-10	5.263528	0.1000052	6.81788E-05	5.263528
-7.6005	-2.861E-10	5.288084	0.1000062	6.76192E-05	5.288084
-7.80048	-3.021E-10	5.31281	0.1000056	6.70568E-05	5.31281
-8.0005	-3.01E-10	5.33734	0.1000049	6.64919E-05	5.33734
-8.20048	-3.089E-10	5.361859	0.1000058	6.59273E-05	5.361859
-8.40049	-2.905E-10	5.386382	0.1000053	6.53591E-05	5.386382
-8.60049	-3.089E-10	5.410898	0.1000058	6.47894E-05	5.410898
-8.80049	-3.38E-10	5.435439	0.1000059	6.42191E-05	5.435439
-9.00049	-3.094E-10	5.459956	0.100006	6.36446E-05	5.459956
-9.20048	-3.007E-10	5.484567	0.1000059	6.30694E-05	5.484567
-9.40048	-3.386E-10	5.509085	0.1000046	6.24913E-05	5.509085
-9.60048	-3.422E-10	5.533606	0.1000062	6.19133E-05	5.533606
-9.8005	-3.203E-10	5.558119	0.1000058	6.1335E-05	5.558119
-10.0005	-3.366E-10	5.582643	0.1000065	6.07553E-05	5.582643
-10.2005	-2.834E-10	5.642823	0.1000064	6.01814E-05	5.642823
-10.40047	-2.949E-10	5.667425	0.1000058	5.95952E-05	5.667425
-10.60049	-3.3E-10	5.691957	0.1000075	5.90104E-05	5.691957
-10.80048	-3.45E-10	5.716488	0.1000059	5.8421E-05	5.716488
-11.00049	-3.26E-10	5.741055	0.1000067	5.78316E-05	5.741055
-11.20048	-3.182E-10	5.765605	0.1000067	5.72402E-05	5.765605
-11.40047	-3.485E-10	5.790131	0.1000059	5.66456E-05	5.790131
-11.60048	-3.615E-10	5.814717	0.1000056	5.60495E-05	5.814717
-11.8005	-3.378E-10	5.839236	0.1000065	5.54526E-05	5.839236
-12.00048	-3.347E-10	5.86377	0.1000065	5.48543E-05	5.86377
#scan	iMeasureCycle=2	iMux=0	time=279.714	N=222	LocalTime=22/06/2023 02:07:29
#VGate(V)	IGate(A)	time(s)	VDrain(V)	IDrain(A)	time(s)
-12.00049	-8.53E-11	279.721532	0.1000058	5.49497E-05	279.721532
-11.80048	-7.9E-12	279.746411	0.1000073	5.55532E-05	279.746411
-11.60052	1.58E-11	279.772089	0.1000065	5.61525E-05	279.772089
-11.40049	1.94E-11	279.796701	0.1000053	5.67495E-05	279.796701
-11.20049	3.96E-11	279.821243	0.100004	5.73448E-05	279.821243
-11.00046	6.76E-11	279.845762	0.100006	5.79406E-05	279.845762
-10.80049	6.75E-11	279.870302	0.1000063	5.85319E-05	279.870302
-10.60048	6.81E-11	279.894822	0.1000051	5.91225E-05	279.894822
-10.40048	7.72E-11	279.919373	0.1000064	5.97124E-05	279.919373
-10.20048	9.19E-11	279.943894	0.1000048	6.02981E-05	279.943894
-10.00047	9.79E-11	279.968442	0.1000054	6.08847E-05	279.968442
-9.80048	1.066E-10	279.992946	0.1000047	6.14681E-05	279.992946
-9.60047	1.194E-10	280.017477	0.1000062	6.20511E-05	280.017477
-9.40049	1.124E-10	280.041995	0.1000075	6.26326E-05	280.041995
-9.20051	1.121E-10	280.066542	0.1000058	6.321E-05	280.066542
-9.00049	1.469E-10	280.091047	0.1000057	6.37848E-05	280.091047
-8.80048	2.524E-10	280.115599	0.1000063	6.43563E-05	280.115599
-8.60048	1.524E-10	280.140174	0.1000065	6.49246E-05	280.140174
-8.4005	1.677E-10	280.164701	0.1000061	6.54913E-05	280.164701
-8.2005	1.754E-10	280.189207	0.1000061	6.60562E-05	280.189207
-8.00047	1.637E-10	280.213739	0.1000074	6.66194E-05	280.213739
-7.80048	1.668E-10	280.238256	0.1000064	6.71805E-05	280.238256
-7.60051	1.002E-10	280.285882	0.1000068	6.77384E-05	280.285882
-7.40049	1.564E-10	280.310421	0.1000062	6.82981E-05	280.310421
-7.20048	1.653E-10	280.334971	0.1000059	6.88563E-05	280.334971
-7.00049	1.748E-10	280.359481	0.1000056	6.94093E-05	280.359481
-6.80048	1.675E-10	280.384068	0.1000058	6.9964E-05	280.384068
-6.6005	1.918E-10	280.40859	0.1000062	7.0516E-05	280.40859
-6.40048	2.034E-10	280.433112	0.1000057	7.10655E-05	280.433112
-6.20051	1.87E-10	280.457671	0.1000064	7.16144E-05	280.457671
-6.00052	1.877E-10	280.48219	0.1000053	7.21602E-05	280.48219
-5.80048	2.197E-10	280.506694	0.100005	7.2705E-05	280.506694
-5.60049	2.098E-10	280.531222	0.1000053	7.32471E-05	280.531222
-5.40048	2.131E-10	280.55575	0.1000052	7.37892E-05	280.55575
-5.2005	2.176E-10	280.580264	0.1000053	7.43288E-05	280.580264
-5.0005	2.289E-10	280.60478	0.1000053	7.48666E-05	280.60478
-4.8005	2.392E-10	280.629368	0.1000049	7.5403E-05	280.629368
-4.60049	2.315E-10	280.653889	0.100006	7.59383E-05	280.653889
-4.40051	2.412E-10	280.678391	0.1000048	7.6471E-05	280.678391
-4.20049	2.422E-10	280.702909	0.1000058	7.70039E-05	280.702909
-4.0005	2.349E-10	280.727447	0.1000057	7.75355E-05	280.727447
-3.8005	2.001E-10	280.787286	0.1000039	7.80615E-05	280.787286
-3.6005	2.227E-10	280.811858	0.1000045	7.85911E-05	280.811858
-3.40052	2.255E-10	280.836401	0.1000053	7.91207E-05	280.836401
-3.20051	2.388E-10	280.860914	0.1000053	7.96471E-05	280.860914
-3.00049	2.512E-10	280.88551	0.1000048	8.0174E-05	280.88551
-2.8005	2.581E-10	280.91002	0.1000051	8.06987E-05	280.91002
-2.60049	2.476E-10	280.934581	0.1000037	8.12223E-05	280.934581
-2.40052	2.724E-10	280.9591	0.1000057	8.17483E-05	280.9591
-2.2005	2.612E-10	280.98363	0.1000042	8.22701E-05	280.98363
-2.0005	2.576E-10	281.008148	0.1000054	8.27929E-05	281.008148
-1.80049	2.923E-10	281.032679	0.1000049	8.3315E-05	281.032679
-1.60049	2.828E-10	281.057196	0.1000049	8.38386E-05	281.057196
-1.4005	2.746E-10	281.081716	0.1000045	8.43639E-05	281.081716
-1.2005	2.897E-10	281.106236	0.100005	8.4892E-05	281.106236
-1.0005	3.011E-10	281.130957	0.1000042	8.54279E-05	281.130957
-0.80051	2.961E-10	281.155491	0.1000051	8.59769E-05	281.155491
-0.60048	2.848E-10	281.180003	0.1000043	8.65353E-05	281.180003
-0.40051	2.987E-10	281.20453	0.100006	8.71064E-05	281.20453
-0.20052	3.105E-10	281.229056	0.1000042	8.76854E-05	281.229056
-0.00049	2.43E-10	281.288733	0.1000042	8.82686E-05	281.288733
0.19951	2.921E-10	281.313248	0.1000053	8.88651E-05	281.313248
0.39952	2.915E-10	281.33779	0.1000048	8.94631E-05	281.33779
0.5995	2.96E-10	281.362299	0.1000037	9.00638E-05	281.362299
0.79949	3E-10	281.386887	0.1000045	9.06677E-05	281.386887
0.99951	3.243E-10	281.411405	0.1000053	9.12747E-05	281.411405
1.19949	3.112E-10	281.43594	0.1000044	9.18803E-05	281.43594
1.39951	2.955E-10	281.460426	0.1000042	9.24916E-05	281.460426
1.59949	3.36E-10	281.484969	0.1000036	9.31037E-05	281.484969
1.79949	3.397E-10	281.509484	0.1000041	9.37182E-05	281.509484
1.9995	4.831E-10	281.534044	0.1000034	9.43344E-05	281.534044
2.1995	3.538E-10	281.558551	0.1000047	9.49522E-05	281.558551
2.39949	3.556E-10	281.58309	0.1000042	9.55723E-05	281.58309
2.59951	3.506E-10	281.607606	0.1000046	9.61927E-05	281.607606
2.79948	3.444E-10	281.632156	0.1000046	9.68135E-05	281.632156
2.9995	3.552E-10	281.656683	0.1000046	9.7435E-05	281.656683
3.19948	2.74E-10	281.681206	0.1000037	9.80538E-05	281.681206
3.39951	3.399E-10	281.70571	0.1000034	9.86758E-05	281.70571
3.59952	3.47E-10	281.730233	0.1000043	9.92975E-05	281.730233
3.7995	3.068E-10	281.790682	0.1000036	9.99104E-05	281.790682
3.9995	3.315E-10	281.815303	0.1000044	0.000100531	281.815303
4.19951	3.269E-10	281.839835	0.1000028	0.0001011469	281.839835
4.3995	3.614E-10	281.864364	0.1000034	0.0001017625	281.864364
4.5995	3.657E-10	281.888928	0.1000039	0.0001023745	281.888928
4.7995	3.539E-10	281.91347	0.1000041	0.0001029842	281.91347
4.9995	3.656E-10	281.937948	0.1000033	0.0001035911	281.937948
5.19949	3.771E-10	281.962473	0.1000032	0.0001041942	281.962473
5.39947	3.501E-10	281.992127	0.1000002	0.00010487	281.992127
5.59952	3.805E-10	282.016654	0.1	0.000105465	282.016654
5.79949	3.702E-10	282.041259	0.1	0.000106058	282.041259
5.99949	3.811E-10	282.065772	0.1	0.000106647	282.065772
6.19948	4.013E-10	282.090389	0.1	0.000107233	282.090389
6.3995	3.879E-10	282.114911	0.1000001	0.000107815	282.114911
6.5995	3.703E-10	282.139514	0.0999998	0.000108392	282.139514
6.79949	4.006E-10	282.164032	0.1000002	0.000108968	282.164032
6.99948	3.984E-10	282.188563	0.0999999	0.00010954	282.188563
7.19949	3.939E-10	282.213069	0.1000001	0.000110104	282.213069
7.3995	3.964E-10	282.237591	0.1000002	0.00011067	282.237591
7.5995	3.427E-10	282.29468	0.0999999	0.000111225	282.29468
7.79949	3.726E-10	282.319213	0.1000002	0.000111784	282.319213
7.99949	4.121E-10	282.343753	0.1	0.000112338	282.343753
8.19948	4.017E-10	282.368269	0.1000001	0.000112887	282.368269
8.3995	3.899E-10	282.392854	0.1000002	0.000113435	282.392854
8.59948	4.145E-10	282.417364	0.0999999	0.000113978	282.417364
8.7995	4.121E-10	282.441983	0.0999999	0.000114519	282.441983
8.99951	4.059E-10	282.466577	0.0999997	0.000115058	282.466577
9.19948	4.307E-10	282.491115	0.1	0.000115593	282.491115
9.39949	4.274E-10	282.515619	0.1000001	0.000116128	282.515619
9.59947	4.135E-10	282.540178	0.1000002	0.000116659	282.540178
9.79949	4.226E-10	282.564688	0.1	0.000117187	282.564688
9.9995	4.397E-10	282.589198	0.1000002	0.000117711	282.589198
9.99949	3.78E-10	282.612544	0.1	0.000117712	282.612544
9.79951	2.769E-10	282.637082	0.0999999	0.000117187	282.637082
9.59951	2.49E-10	282.661588	0.1000001	0.000116661	282.661588
9.39948	2.293E-10	282.686114	0.1000001	0.000116131	282.686114
9.19951	2.002E-10	282.710619	0.0999999	0.000115598	282.710619
8.99949	1.663E-10	282.735238	0.0999999	0.000115061	282.735238
8.79949	1.882E-10	282.793591	0.1000001	0.000114516	282.793591
8.5995	1.424E-10	282.818216	0.0999998	0.000113967	282.818216
8.3995	1.325E-10	282.842737	0.0999998	0.000113418	282.842737
8.1995	1.147E-10	282.867269	0.0999998	0.000112859	282.867269
7.99951	1.004E-10	282.891831	0.1000003	0.000112301	282.891831
7.79952	8.11E-11	282.916363	0.1	0.000111736	282.916363
7.5995	1.972E-10	282.940893	0.0999998	0.000111173	282.940893
7.3995	7.93E-11	282.965418	0.1	0.000110604	282.965418
7.1995	6.33E-11	282.989929	0.1	0.000110032	282.989929
6.9995	5.51E-11	283.014453	0.1000001	0.000109457	283.014453
6.79951	3.09E-11	283.038965	0.1	0.00010888	283.038965
6.59951	2.57E-11	283.063499	0.0999997	0.000108298	283.063499
6.39949	-9.8E-11	283.088021	0.0999999	0.000107713	283.088021
6.19948	1.27E-11	283.112548	0.0999997	0.000107127	283.112548
5.99949	-9.2E-12	283.137127	0.1	0.000106533	283.137127
5.79951	-2.11E-11	283.161677	0.1000001	0.000105937	283.161677
5.5995	-9.2E-12	283.186191	0.1000001	0.00010534	283.186191
5.3995	-3.1E-12	283.210726	0.1	0.000104739	283.210726
5.19948	-3.82E-11	283.235247	0.0999999	0.000104134	283.235247
4.9995	3.14E-11	283.291101	0.0999998	0.000103527	283.291101
4.79949	-3.45E-11	283.315685	0.1	0.000102914	283.315685
4.59951	-2.55E-11	283.340214	0.1	0.000102302	283.340214
4.39951	-3.96E-11	283.364755	0.0999999	0.000101686	283.364755
4.19951	-6.1E-11	283.389321	0.1	0.000101066	283.389321
3.99949	-5.91E-11	283.413855	0.0999997	0.000100446	283.413855
3.7995	-6.13E-11	283.438355	0.0999999	9.9823E-05	283.438355
3.59951	-7.89E-11	283.462907	0.1000001	9.9198E-05	283.462907
3.39951	-8.22E-11	283.487514	0.1000001	9.8575E-05	283.487514
3.19951	-6.8E-11	283.512071	0.1	9.795E-05	283.512071
2.99949	-8.47E-11	283.536587	0.1000001	9.7326E-05	283.536587
2.7995	-1.019E-10	283.561141	0.0999998	9.6701E-05	283.561141
2.59953	-1.042E-10	283.585651	0.0999999	9.6077E-05	283.585651
2.39951	-7.66E-11	283.610184	0.0999999	9.5456E-05	283.610184
2.19949	-1.146E-10	283.634705	0.0999998	9.4833E-05	283.634705
1.99948	-1.329E-10	283.659307	0.1	9.4214E-05	283.659307
1.79951	-1.086E-10	283.683825	0.1	9.3596E-05	283.683825
1.59951	-1.156E-10	283.708336	0.1000002	9.2978E-05	283.708336
1.39952	-1.459E-10	283.732843	0.0999998	9.2366E-05	283.732843
1.1995	-8.24E-11	283.794976	0.0999998	9.1757E-05	283.794976
0.9995	-1.027E-10	283.819606	0.1000003	9.1148E-05	283.819606
0.79951	-1.195E-10	283.844131	0.0999998	9.0541E-05	283.844131
0.59951	-1.294E-10	283.868657	0.0999999	8.9935E-05	283.868657
0.39948	-1.414E-10	283.893243	0.0999997	8.9331E-05	283.893243
0.19951	-1.469E-10	283.917761	0.0999998	8.8733E-05	283.917761
-0.00048	-1.56E-10	283.942282	0.1	8.814E-05	283.942282
-0.20051	-1.338E-10	283.970125	0.1000048	8.74753E-05	283.970125
-0.4005	-1.755E-10	283.994654	0.100005	8.68991E-05	283.994654
-0.60049	-1.657E-10	284.019184	0.1000047	8.63345E-05	284.019184
-0.8005	-1.652E-10	284.04373	0.100005	8.5783E-05	284.04373
-1.00052	-1.747E-10	284.068246	0.1000047	8.5243E-05	284.068246
-1.2005	-1.824E-10	284.092857	0.1000039	8.47118E-05	284.092857
-1.40049	-1.925E-10	284.117394	0.1000045	8.41869E-05	284.117394
-1.60049	-1.915E-10	284.141994	0.1000045	8.36637E-05	284.141994
-1.8005	-2.086E-10	284.166526	0.1000056	8.3143E-05	284.166526
-2.0005	-1.969E-10	284.191035	0.1000043	8.26212E-05	284.191035
-2.20047	-2.055E-10	284.215554	0.1000047	8.20999E-05	284.215554
-2.40048	-2.272E-10	284.240066	0.1000052	8.15768E-05	284.240066
-2.60047	-1.658E-10	284.301604	0.1000053	8.10569E-05	284.301604
-2.80049	-1.849E-10	284.326586	0.1000053	8.05317E-05	284.326586
-3.00047	1.019E-10	284.351111	0.1000054	8.00069E-05	284.351111
-3.20049	-2.028E-10	284.375632	0.1000045	7.94803E-05	284.375632
-3.40047	-2.067E-10	284.400202	0.1000042	7.89532E-05	284.400202
-3.60049	-2.089E-10	284.424716	0.1000061	7.84272E-05	284.424716
-3.80048	-2.211E-10	284.449234	0.1000051	7.78979E-05	284.449234
-4.00046	-2.311E-10	284.473843	0.1000056	7.73686E-05	284.473843
-4.20048	-2.38E-10	284.498346	0.1000055	7.68352E-05	284.498346
-4.40049	-2.426E-10	284.522866	0.1000042	7.63035E-05	284.522866
-4.60048	-2.434E-10	284.54737	0.1000059	7.57697E-05	284.54737
-4.80046	-2.465E-10	284.571917	0.1000064	7.52345E-05	284.571917
-5.0005	-2.446E-10	284.596426	0.1000058	7.46978E-05	284.596426
-5.2005	-2.625E-10	284.620958	0.1000053	7.41589E-05	284.620958
-5.40049	-2.669E-10	284.645477	0.1000053	7.3619E-05	284.645477
-5.60047	-2.441E-10	284.6701	0.1000061	7.3077E-05	284.6701
-5.80049	-2.647E-10	284.694612	0.1000054	7.25342E-05	284.694612
-6.00049	-3.971E-10	284.719237	0.1000055	7.19878E-05	284.719237
-6.20049	-2.832E-10	284.743762	0.1000048	7.14408E-05	284.743762
-6.40047	-2.398E-10	284.800534	0.1000056	7.08929E-05	284.800534
-6.60049	-2.6E-10	284.825105	0.1000055	7.03428E-05	284.825105
-6.80048	-2.647E-10	284.849655	0.1000057	6.9791E-05	284.849655
-7.00047	-2.861E-10	284.874171	0.1000058	6.92358E-05	284.874171
-7.20049	-3.058E-10	284.898749	0.1000055	6.8678E-05	284.898749
-7.40046	-2.841E-10	284.923261	0.1000056	6.81193E-05	284.923261
-7.60048	-2.804E-10	284.947765	0.1000058	6.75595E-05	284.947765
-7.80046	-3.053E-10	284.972281	0.1000058	6.69967E-05	284.972281
-8.00048	-2.956E-10	284.996793	0.1000056	6.64329E-05	284.996793
-8.20046	-3.071E-10	285.021298	0.1000068	6.58674E-05	285.021298
-8.40048	-3.139E-10	285.045818	0.1000049	6.52992E-05	285.045818
-8.6005	-2.968E-10	285.07046	0.1000062	6.47301E-05	285.07046
-8.80046	-3.082E-10	285.09497	0.1000056	6.41584E-05	285.09497
-9.00048	-3.216E-10	285.119508	0.1000061	6.35839E-05	285.119508
-9.20047	-3.243E-10	285.144112	0.100005	6.30081E-05	285.144112
-9.40049	-3.032E-10	285.168651	0.1000058	6.24307E-05	285.168651
-9.6005	-3.25E-10	285.193156	0.1000044	6.18518E-05	285.193156
-9.80047	-3.373E-10	285.217696	0.100006	6.12745E-05	285.217696
-10.00048	-3.402E-10	285.242202	0.100004	6.0693E-05	285.242202
-10.20049	-2.73E-10	285.301845	0.1000061	6.01186E-05	285.301845
-10.4005	-3.163E-10	285.326405	0.100006	5.95343E-05	285.326405
-10.60046	-3.18E-10	285.350937	0.1000068	5.89479E-05	285.350937
-10.8005	-3.211E-10	285.375423	0.1000064	5.83596E-05	285.375423
-11.00047	-3.437E-10	285.400006	0.1000059	5.77695E-05	285.400006
-11.20047	-3.398E-10	285.42451	0.1000069	5.71781E-05	285.42451
-11.40049	-3.282E-10	285.449047	0.1000063	5.6584E-05	285.449047
-11.6005	-3.296E-10	285.473644	0.1000045	5.59873E-05	285.473644
-11.80051	-3.548E-10	285.498171	0.1000051	5.53904E-05	285.498171
-12.00049	-3.508E-10	285.522694	0.1000058	5.47914E-05	285.522694
#scan	iMeasureCycle=3	iMux=0	time=319.818	N=222	LocalTime=22/06/2023 02:08:09
#VGate(V)	IGate(A)	time(s)	VDrain(V)	IDrain(A)	time(s)
-12.00048	-7.95E-11	319.825752	0.1000064	5.49091E-05	319.825752
-11.80049	-5.25E-11	319.850644	0.1000076	5.55113E-05	319.850644
-11.60049	-4.22E-11	319.876328	0.1000071	5.61115E-05	319.876328
-11.40052	1.1E-11	319.900863	0.1000056	5.67085E-05	319.900863
-11.20048	3.69E-11	319.925397	0.1000071	5.73057E-05	319.925397
-11.00048	3.23E-11	319.949919	0.1000056	5.79001E-05	319.949919
-10.80048	6.95E-11	319.974456	0.1000068	5.84916E-05	319.974456
-10.60051	6.63E-11	319.99897	0.1000061	5.90826E-05	319.99897
-10.4005	6.3E-11	320.023495	0.1000071	5.96713E-05	320.023495
-10.20051	8.69E-11	320.048008	0.1000071	6.02586E-05	320.048008
-10.00047	1.005E-10	320.072543	0.1000077	6.08443E-05	320.072543
-9.80048	9.25E-11	320.097141	0.1000071	6.14286E-05	320.097141
-9.60051	1.054E-10	320.121692	0.1000048	6.20094E-05	320.121692
-9.40049	1.208E-10	320.146203	0.100007	6.25913E-05	320.146203
-9.20048	1.212E-10	320.170743	0.1000072	6.31684E-05	320.170743
-9.00051	1.222E-10	320.195254	0.1000062	6.37418E-05	320.195254
-8.8005	1.27E-10	320.219862	0.1000059	6.43156E-05	320.219862
-8.60048	1.469E-10	320.244387	0.1000066	6.48835E-05	320.244387
-8.40048	1.442E-10	320.26892	0.1000063	6.54503E-05	320.26892
-8.20049	1.358E-10	320.293426	0.1000065	6.6015E-05	320.293426
-8.0005	1.601E-10	320.31796	0.1000071	6.65777E-05	320.31796
-7.8005	1.617E-10	320.342489	0.1000073	6.71394E-05	320.342489
-7.60052	1.267E-10	320.389478	0.1000052	6.76955E-05	320.389478
-7.40051	1.514E-10	320.414036	0.1000066	6.82559E-05	320.414036
-7.20049	1.486E-10	320.43855	0.1000059	6.88126E-05	320.43855
-7.00051	1.847E-10	320.463082	0.1000061	6.93687E-05	320.463082
-6.80049	1.771E-10	320.487647	0.1000067	6.99229E-05	320.487647
-6.6005	1.771E-10	320.512185	0.1000059	7.04725E-05	320.512185
-6.40049	1.743E-10	320.536749	0.1000059	7.10226E-05	320.536749
-6.2005	2.004E-10	320.561273	0.1000055	7.15706E-05	320.561273
-6.00051	2.032E-10	320.585787	0.1000055	7.21171E-05	320.585787
-5.8005	1.893E-10	320.610304	0.1000062	7.26622E-05	320.610304
-5.60049	2.119E-10	320.634811	0.1000061	7.32055E-05	320.634811
-5.4005	2.116E-10	320.659333	0.1000065	7.37468E-05	320.659333
-5.20048	2.046E-10	320.683828	0.1000053	7.42854E-05	320.683828
-5.00051	2.193E-10	320.708348	0.100006	7.48244E-05	320.708348
-4.80048	2.256E-10	320.732866	0.1000055	7.53605E-05	320.732866
-4.60048	2.19E-10	320.757396	0.1000061	7.58952E-05	320.757396
-4.40052	2.265E-10	320.781901	0.1000057	7.64288E-05	320.781901
-4.20051	2.508E-10	320.806439	0.1000056	7.69613E-05	320.806439
-4.00052	2.33E-10	320.830965	0.1000055	7.74925E-05	320.830965
-3.8005	1.678E-10	320.891293	0.1000059	7.8019E-05	320.891293
-3.60049	2.298E-10	320.915819	0.1000051	7.8548E-05	320.915819
-3.40052	2.346E-10	320.940348	0.1000044	7.90754E-05	320.940348
-3.20051	2.277E-10	320.964867	0.100005	7.96013E-05	320.964867
-3.00051	2.338E-10	320.989445	0.1000043	8.01278E-05	320.989445
-2.80051	2.98E-10	321.013915	0.100006	8.06533E-05	321.013915
-2.60052	2.647E-10	321.038439	0.1000054	8.1179E-05	321.038439
-2.4005	2.638E-10	321.06296	0.1000056	8.17023E-05	321.06296
-2.2005	2.698E-10	321.08747	0.1000053	8.2225E-05	321.08747
-2.00051	2.808E-10	321.111993	0.1000057	8.27476E-05	321.111993
-1.8005	2.663E-10	321.136526	0.1000056	8.32694E-05	321.136526
-1.60047	2.797E-10	321.161026	0.100007	8.37935E-05	321.161026
-1.40052	2.991E-10	321.185555	0.1000058	8.43177E-05	321.185555
-1.20051	2.87E-10	321.210077	0.100005	8.48463E-05	321.210077
-1.00049	2.855E-10	321.234695	0.1000045	8.53824E-05	321.234695
-0.80054	3.041E-10	321.259217	0.100005	8.59286E-05	321.259217
-0.60049	2.262E-10	321.283748	0.1000049	8.64875E-05	321.283748
-0.4005	2.885E-10	321.308264	0.1000056	8.70572E-05	321.308264
-0.20049	2.891E-10	321.3328	0.1000048	8.76368E-05	321.3328
-0.00051	2.427E-10	321.392638	0.1000051	8.82199E-05	321.392638
0.19948	2.642E-10	321.417222	0.1000048	8.88142E-05	321.417222
0.39951	2.876E-10	321.441751	0.1000045	8.94145E-05	321.441751
0.5995	3.162E-10	321.46626	0.1000051	9.0017E-05	321.46626
0.79949	2.954E-10	321.49086	0.1000044	9.06199E-05	321.49086
0.9995	3.075E-10	321.515379	0.1000048	9.12271E-05	321.515379
1.1995	3.166E-10	321.539912	0.1000046	9.18346E-05	321.539912
1.3995	3.264E-10	321.564518	0.1000053	9.24456E-05	321.564518
1.5995	3.236E-10	321.58904	0.1000039	9.30569E-05	321.58904
1.79949	3.202E-10	321.613562	0.1000049	9.3673E-05	321.613562
1.99951	3.405E-10	321.638156	0.1000041	9.42893E-05	321.638156
2.1995	3.38E-10	321.662681	0.1000044	9.49073E-05	321.662681
2.3995	3.33E-10	321.687215	0.1000042	9.55263E-05	321.687215
2.5995	3.567E-10	321.711737	0.1000046	9.61478E-05	321.711737
2.79948	3.447E-10	321.736274	0.1000044	9.67676E-05	321.736274
2.9995	3.381E-10	321.760794	0.1000043	9.73897E-05	321.760794
3.1995	3.561E-10	321.78531	0.1000041	9.80113E-05	321.78531
3.39947	3.641E-10	321.809805	0.1000032	9.8633E-05	321.809805
3.5995	3.62E-10	321.834329	0.1000038	9.92533E-05	321.834329
3.79947	2.961E-10	321.894347	0.1000038	9.98676E-05	321.894347
3.99948	3.503E-10	321.918863	0.1000036	0.0001004876	321.918863
4.19949	3.462E-10	321.943399	0.1000034	0.0001011048	321.943399
4.39948	3.586E-10	321.9679	0.1000035	0.0001017205	321.9679
4.59949	3.699E-10	321.992475	0.1000036	0.000102332	321.992475
4.79948	3.577E-10	322.017009	0.100004	0.0001029437	322.017009
4.99949	3.803E-10	322.041536	0.1000042	0.0001035511	322.041536
5.19951	3.781E-10	322.06606	0.1000035	0.0001041544	322.06606
5.39948	3.209E-10	322.113528	0.0999998	0.000104825	322.113528
5.59949	3.579E-10	322.138305	0.1000001	0.000105421	322.138305
5.79948	3.839E-10	322.162822	0.1000001	0.000106014	322.162822
5.9995	3.764E-10	322.187347	0.0999999	0.000106605	322.187347
6.19949	3.709E-10	322.211941	0.0999999	0.00010719	322.211941
6.3995	4.034E-10	322.23655	0.1	0.000107772	322.23655
6.5995	3.954E-10	322.261057	0.0999997	0.000108352	322.261057
6.79949	3.864E-10	322.285576	0.0999999	0.000108928	322.285576
6.99948	4.031E-10	322.310081	0.1	0.000109498	322.310081
7.19949	4.089E-10	322.334612	0.1000001	0.000110068	322.334612
7.39949	3.519E-10	322.398573	0.0999999	0.000110626	322.398573
7.5995	4.504E-10	322.42311	0.0999999	0.000111187	322.42311
7.7995	4.015E-10	322.447635	0.1000001	0.000111748	322.447635
7.99948	4.132E-10	322.472154	0.1000002	0.000112303	322.472154
8.19948	4.15E-10	322.496727	0.0999997	0.000112852	322.496727
8.39952	4.112E-10	322.521266	0.1	0.000113401	322.521266
8.59949	4.184E-10	322.545786	0.1	0.000113944	322.545786
8.79948	4.299E-10	322.570396	0.0999998	0.000114486	322.570396
8.99948	4.234E-10	322.594928	0.1	0.000115021	322.594928
9.19949	4.228E-10	322.619533	0.0999998	0.000115556	322.619533
9.3995	4.366E-10	322.644072	0.0999999	0.000116093	322.644072
9.59949	3.64E-10	322.668648	0.0999997	0.000116621	322.668648
9.79951	4.026E-10	322.693182	0.1	0.000117152	322.693182
9.99946	4.236E-10	322.71769	0.1	0.000117679	322.71769
9.99949	3.698E-10	322.741064	0.1000003	0.000117679	322.741064
9.7995	2.948E-10	322.765573	0.0999999	0.000117154	322.765573
9.5995	2.422E-10	322.790095	0.1000001	0.000116625	322.790095
9.3995	2.199E-10	322.814602	0.1	0.000116098	322.814602
9.19949	2.009E-10	322.839148	0.0999998	0.000115563	322.839148
8.99949	2.155E-10	322.897521	0.0999999	0.000115026	322.897521
8.79952	1.646E-10	322.922083	0.1000001	0.000114488	322.922083
8.59952	1.35E-10	322.946612	0.0999997	0.000113937	322.946612
8.39951	1.272E-10	322.971126	0.1000002	0.000113384	322.971126
8.1995	1.097E-10	322.995707	0.0999999	0.000112828	322.995707
7.99952	9.27E-11	323.020227	0.1000002	0.000112267	323.020227
7.79949	8.01E-11	323.044749	0.1	0.000111704	323.044749
7.59949	8.15E-11	323.069288	0.0999998	0.00011114	323.069288
7.39949	6.62E-11	323.093803	0.0999998	0.00011057	323.093803
7.1995	4.45E-11	323.118296	0.0999997	0.000109997	323.118296
6.99949	3.9E-11	323.142822	0.1000001	0.000109421	323.142822
6.7995	5.56E-11	323.167324	0.1	0.000108843	323.167324
6.59951	2.19E-11	323.191839	0.1	0.000108261	323.191839
6.39951	-7E-13	323.216353	0.1	0.000107677	323.216353
6.1995	1.96E-11	323.241021	0.0999998	0.000107088	323.241021
5.99948	1.08E-11	323.265556	0.1	0.000106497	323.265556
5.79952	-1.11E-11	323.290072	0.1	0.000105902	323.290072
5.59951	-1.53E-11	323.314598	0.0999999	0.000105302	323.314598
5.39951	-2.12E-11	323.339376	0.1	0.000104701	323.339376
5.1995	2.47E-11	323.399178	0.1000001	0.000104097	323.399178
4.99951	-1.15E-11	323.423765	0.1000001	0.000103487	323.423765
4.79951	-1.47E-11	323.44829	0.1000001	0.000102876	323.44829
4.5995	-4.33E-11	323.472817	0.0999999	0.000102261	323.472817
4.39947	-5.25E-11	323.497394	0.0999998	0.000101644	323.497394
4.1995	-3.78E-11	323.521928	0.1	0.000101025	323.521928
3.9995	-5.1E-11	323.546452	0.1	0.000100405	323.546452
3.79951	-6.75E-11	323.571064	0.0999998	9.9783E-05	323.571064
3.59951	-8.76E-11	323.595579	0.0999999	9.9161E-05	323.595579
3.39949	-6.78E-11	323.620121	0.0999996	9.8536E-05	323.620121
3.1995	-7.97E-11	323.644718	0.0999999	9.791E-05	323.644718
2.99951	-1.003E-10	323.669246	0.0999997	9.7287E-05	323.669246
2.79948	-8.68E-11	323.693767	0.1	9.6661E-05	323.693767
2.59951	-1.084E-10	323.718281	0.0999998	9.6037E-05	323.718281
2.3995	-1.117E-10	323.74282	0.0999999	9.5416E-05	323.74282
2.1995	-9.79E-11	323.76734	0.1000002	9.4793E-05	323.76734
1.9995	-1.127E-10	323.79186	0.1	9.4173E-05	323.79186
1.79949	-3.36E-11	323.816377	0.1	9.3554E-05	323.816377
1.59952	-1.03E-10	323.841175	0.0999998	9.294E-05	323.841175
1.39949	-5.8E-11	323.900678	0.1000001	9.2326E-05	323.900678
1.19949	-1.063E-10	323.925273	0.1000002	9.1714E-05	323.925273
0.9995	-1.278E-10	323.949802	0.0999998	9.1106E-05	323.949802
0.7995	-1.224E-10	323.974342	0.1000001	9.0497E-05	323.974342
0.59953	-1.363E-10	323.998907	0.1000001	8.9893E-05	323.998907
0.39952	-1.42E-10	324.023443	0.1	8.9292E-05	324.023443
0.19951	-1.522E-10	324.04796	0.1	8.8692E-05	324.04796
-0.0005	-1.519E-10	324.072501	0.1000001	8.81E-05	324.072501
-0.2005	-1.902E-10	324.100438	0.1000047	8.74378E-05	324.100438
-0.40048	-1.727E-10	324.125036	0.100004	8.686E-05	324.125036
-0.60047	-1.918E-10	324.149566	0.1000045	8.62977E-05	324.149566
-0.80047	-1.85E-10	324.174082	0.1000049	8.57465E-05	324.174082
-1.00048	-1.875E-10	324.198618	0.1000056	8.52061E-05	324.198618
-1.2005	-1.825E-10	324.223141	0.1000049	8.46763E-05	324.223141
-1.40047	-2.002E-10	324.247837	0.1000053	8.41508E-05	324.247837
-1.60048	-1.96E-10	324.272352	0.1000052	8.36287E-05	324.272352
-1.8005	-2.06E-10	324.296863	0.1000049	8.31076E-05	324.296863
-2.00051	-2.08E-10	324.321381	0.1000057	8.25852E-05	324.321381
-2.20048	-2.08E-10	324.345933	0.1000048	8.20629E-05	324.345933
-2.40053	-1.556E-10	324.405136	0.1000049	8.1544E-05	324.405136
-2.60048	-1.961E-10	324.429667	0.1000042	8.10192E-05	324.429667
-2.80048	-2.029E-10	324.454254	0.1000061	8.04964E-05	324.454254
-3.00047	-2.149E-10	324.478787	0.1000043	7.99693E-05	324.478787
-3.2005	-2.163E-10	324.503355	0.1000052	7.94454E-05	324.503355
-3.4005	-2.248E-10	324.527878	0.1000056	7.89195E-05	324.527878
-3.60048	-2.165E-10	324.552359	0.1000052	7.83911E-05	324.552359
-3.80048	-2.37E-10	324.576983	0.1000055	7.78628E-05	324.576983
-4.00049	-2.52E-10	324.601501	0.1000052	7.73329E-05	324.601501
-4.20048	-2.127E-10	324.626042	0.1000055	7.6802E-05	324.626042
-4.40048	-2.425E-10	324.650556	0.1000066	7.62693E-05	324.650556
-4.60048	-2.656E-10	324.675091	0.1000049	7.57358E-05	324.675091
-4.80046	-2.491E-10	324.699604	0.1000059	7.52009E-05	324.699604
-5.00049	-2.469E-10	324.724116	0.1000062	7.46633E-05	324.724116
-5.2005	-2.648E-10	324.748642	0.1000064	7.41255E-05	324.748642
-5.4005	-2.768E-10	324.773184	0.1000068	7.35861E-05	324.773184
-5.60047	-2.712E-10	324.797693	0.1000051	7.30428E-05	324.797693
-5.80049	-2.613E-10	324.822222	0.100006	7.25004E-05	324.822222
-6.0005	-2.771E-10	324.846758	0.1000054	7.1953E-05	324.846758
-6.20049	-2.107E-10	324.904107	0.1000064	7.14089E-05	324.904107
-6.40047	-2.593E-10	324.928686	0.1000065	7.08592E-05	324.928686
-6.60051	-2.642E-10	324.953223	0.1000058	7.03082E-05	324.953223
-6.80047	-2.612E-10	324.977743	0.1000064	6.97562E-05	324.977743
-7.00049	-2.827E-10	325.002306	0.1000059	6.92017E-05	325.002306
-7.20049	-2.791E-10	325.026828	0.1000069	6.86452E-05	325.026828
-7.40049	-2.858E-10	325.05134	0.1000051	6.80858E-05	325.05134
-7.60049	-2.959E-10	325.075825	0.1000068	6.75261E-05	325.075825
-7.80048	-2.894E-10	325.100336	0.1000069	6.69635E-05	325.100336
-8.00049	-2.949E-10	325.124843	0.1000064	6.63987E-05	325.124843
-8.20049	-2.903E-10	325.149394	0.1000065	6.58329E-05	325.149394
-8.4005	-3.066E-10	325.173923	0.1000064	6.52652E-05	325.173923
-8.60049	-3.234E-10	325.198431	0.1000056	6.46948E-05	325.198431
-8.80048	-1.892E-10	325.222944	0.1000063	6.41239E-05	325.222944
-9.00048	-2.55E-10	325.247559	0.1000057	6.35498E-05	325.247559
-9.20046	-3.145E-10	325.272072	0.1000055	6.29746E-05	325.272072
-9.4005	-3.195E-10	325.296591	0.1000067	6.23977E-05	325.296591
-9.60047	-3.055E-10	325.321114	0.1000076	6.18199E-05	325.321114
-9.80047	-3.198E-10	325.345962	0.1000068	6.12421E-05	325.345962
-10.00047	-2.611E-10	325.405604	0.1000071	6.06675E-05	325.405604
-10.2005	-2.93E-10	325.43017	0.1000054	6.0085E-05	325.43017
-10.40047	-3.205E-10	325.454692	0.1000073	5.95014E-05	325.454692
-10.60048	-3.264E-10	325.47921	0.1000067	5.89141E-05	325.47921
-10.80047	-3.138E-10	325.503773	0.1000061	5.83257E-05	325.503773
-11.00049	-3.305E-10	325.5283	0.1000051	5.77356E-05	325.5283
-11.20048	-3.319E-10	325.552819	0.1000071	5.71443E-05	325.552819
-11.4005	-3.423E-10	325.577427	0.1000061	5.655E-05	325.577427
-11.6005	-3.342E-10	325.601967	0.1000068	5.59543E-05	325.601967
-11.80049	-3.332E-10	325.626484	0.1000061	5.53573E-05	325.626484
-12.00048	-3.556E-10	325.651013	0.1000059	5.47582E-05	325.651013
