#scan	iMeasureCycle=1	iMux=0	time=0.022	N=222	LocalTime=22/06/2023 09:32:52
#VGate(V)	IGate(A)	time(s)	VDrain(V)	IDrain(A)	time(s)
-12.0005	-3.1541E-09	0.045358	0.1000065	6.98843E-05	0.045358
-11.80048	-3.0465E-09	0.070228	0.100006	7.04392E-05	0.070228
-11.6005	-1.4649E-09	0.0948	0.1000072	7.09918E-05	0.0948
-11.40049	-5.19E-10	0.11933	0.1000064	7.15407E-05	0.11933
-11.2005	-3.057E-10	0.143829	0.1000061	7.20869E-05	0.143829
-11.00048	-2.275E-10	0.168359	0.1000058	7.26303E-05	0.168359
-10.8005	-1.873E-10	0.192887	0.1000061	7.31721E-05	0.192887
-10.6005	-8.54E-11	0.217424	0.1000049	7.37098E-05	0.217424
-10.40052	-5.5E-11	0.241935	0.1000057	7.42479E-05	0.241935
-10.2005	-5.55E-11	0.26647	0.1000065	7.47811E-05	0.26647
-10.00049	-1.54E-11	0.290968	0.1000058	7.53133E-05	0.290968
-9.8005	3.2E-12	0.315507	0.1000057	7.58449E-05	0.315507
-9.60051	1.4E-11	0.34003	0.1000053	7.63724E-05	0.34003
-9.40048	2.28E-11	0.364563	0.1000062	7.68995E-05	0.364563
-9.20049	4.48E-11	0.389098	0.1000061	7.74235E-05	0.389098
-9.0005	4.13E-11	0.413627	0.1000054	7.79404E-05	0.413627
-8.80049	6.81E-11	0.438393	0.1000059	7.84585E-05	0.438393
-8.60051	8.25E-11	0.462919	0.1000056	7.897E-05	0.462919
-8.40051	8.54E-11	0.487426	0.1000058	7.94813E-05	0.487426
-8.2005	6.64E-11	0.511956	0.1000046	7.99878E-05	0.511956
-8.00048	9.25E-11	0.536504	0.1000058	8.04954E-05	0.536504
-7.80048	1.259E-10	0.561003	0.1000057	8.09996E-05	0.561003
-7.60049	6.84E-11	0.608487	0.1000053	8.14995E-05	0.608487
-7.4005	9.63E-11	0.633045	0.1000058	8.20023E-05	0.633045
-7.20049	1.195E-10	0.657548	0.1000057	8.2503E-05	0.657548
-7.00049	1.44E-10	0.682085	0.1000059	8.30029E-05	0.682085
-6.80047	1.446E-10	0.706661	0.1000059	8.34981E-05	0.706661
-6.6005	1.302E-10	0.731173	0.1000052	8.39924E-05	0.731173
-6.40049	1.505E-10	0.755703	0.1000045	8.4486E-05	0.755703
-6.2005	1.595E-10	0.780218	0.1000049	8.49775E-05	0.780218
-6.00049	1.761E-10	0.804736	0.1000051	8.54671E-05	0.804736
-5.80049	1.643E-10	0.829257	0.1000047	8.59568E-05	0.829257
-5.60049	1.478E-10	0.853755	0.1000049	8.64442E-05	0.853755
-5.40051	1.991E-10	0.878297	0.1000043	8.69273E-05	0.878297
-5.2005	2.091E-10	0.902811	0.1000047	8.74129E-05	0.902811
-5.00051	1.796E-10	0.927414	0.1000043	8.78941E-05	0.927414
-4.80048	2.99E-10	0.951928	0.1000053	8.83767E-05	0.951928
-4.60049	2.259E-10	0.976443	0.1000056	8.88574E-05	0.976443
-4.4005	2.262E-10	1.000974	0.1000053	8.93356E-05	1.000974
-4.20049	2.144E-10	1.025499	0.100006	8.98142E-05	1.025499
-4.00049	2.246E-10	1.050036	0.1000058	9.02898E-05	1.050036
-3.80049	1.642E-10	1.110319	0.1000055	9.07618E-05	1.110319
-3.60049	1.908E-10	1.134853	0.1000063	9.12366E-05	1.134853
-3.40049	2.298E-10	1.159462	0.1000052	9.17108E-05	1.159462
-3.2005	2.328E-10	1.18398	0.1000054	9.21838E-05	1.18398
-3.00049	1.138E-10	1.208578	0.1000052	9.26528E-05	1.208578
-2.8005	1.963E-10	1.233109	0.1000048	9.31234E-05	1.233109
-2.6005	2.439E-10	1.257639	0.1000039	9.35925E-05	1.257639
-2.40051	2.585E-10	1.282148	0.1000048	9.40598E-05	1.282148
-2.2005	2.31E-10	1.306676	0.1000045	9.45272E-05	1.306676
-2.0005	2.36E-10	1.331206	0.1000035	9.49933E-05	1.331206
-1.8005	2.572E-10	1.355725	0.1000049	9.54624E-05	1.355725
-1.60049	2.588E-10	1.380254	0.1000049	9.59325E-05	1.380254
-1.4005	2.682E-10	1.404765	0.1000045	9.64071E-05	1.404765
-1.2005	2.699E-10	1.4295	0.1000046	9.68898E-05	1.4295
-1.0005	2.567E-10	1.454065	0.1000043	9.73822E-05	1.454065
-0.80051	2.747E-10	1.478598	0.1000048	9.78832E-05	1.478598
-0.60049	3.065E-10	1.503108	0.100004	9.83926E-05	1.503108
-0.4005	2.809E-10	1.527658	0.100004	9.89099E-05	1.527658
-0.20051	2.621E-10	1.552179	0.1000043	9.94318E-05	1.552179
-0.00051	2.3E-10	1.61146	0.1000041	9.99536E-05	1.61146
0.19951	2.754E-10	1.636015	0.1000046	0.0001004862	1.636015
0.3995	2.781E-10	1.660521	0.1000036	0.0001010182	1.660521
0.59951	2.913E-10	1.68507	0.100004	0.0001015517	1.68507
0.79949	3.039E-10	1.709633	0.100004	0.0001020855	1.709633
0.9995	2.889E-10	1.734162	0.1000037	0.0001026228	1.734162
1.19949	3.047E-10	1.758687	0.1000037	0.0001031625	1.758687
1.3995	3.253E-10	1.783275	0.1000043	0.0001037025	1.783275
1.5995	3.19E-10	1.807787	0.1000036	0.000104243	1.807787
1.79949	2.714E-10	1.854777	0.0999996	0.000104863	1.854777
1.9995	3.088E-10	1.879309	0.0999999	0.000105407	1.879309
2.19951	3.139E-10	1.903832	0.0999999	0.000105951	1.903832
2.3995	3.191E-10	1.928442	0.0999999	0.000106496	1.928442
2.5995	3.158E-10	1.952969	0.1	0.000107045	1.952969
2.7995	3.355E-10	1.977481	0.0999999	0.000107594	1.977481
2.9995	3.591E-10	2.002008	0.0999998	0.000108142	2.002008
3.19949	3.411E-10	2.026525	0.0999998	0.000108688	2.026525
3.39949	3.231E-10	2.051061	0.0999999	0.000109235	2.051061
3.59949	2.705E-10	2.114678	0.0999998	0.000109774	2.114678
3.79949	3.235E-10	2.139255	0.0999999	0.000110323	2.139255
3.99949	3.451E-10	2.163771	0.0999999	0.000110869	2.163771
4.19949	3.375E-10	2.188301	0.0999999	0.000111413	2.188301
4.39949	3.36E-10	2.212877	0.1	0.000111954	2.212877
4.5995	3.584E-10	2.237426	0.0999999	0.000112493	2.237426
4.79949	3.817E-10	2.261935	0.1	0.000113031	2.261935
4.99949	3.609E-10	2.286466	0.0999998	0.000113568	2.286466
5.19948	3.352E-10	2.310976	0.0999999	0.000114099	2.310976
5.39949	3.869E-10	2.335582	0.0999998	0.00011463	2.335582
5.59949	5.684E-10	2.360094	0.1	0.000115157	2.360094
5.79952	3.847E-10	2.384645	0.1	0.000115681	2.384645
5.9995	3.867E-10	2.409146	0.1	0.000116204	2.409146
6.1995	3.893E-10	2.433751	0.1000001	0.000116723	2.433751
6.39949	3.95E-10	2.458314	0.1	0.000117241	2.458314
6.59948	4.106E-10	2.482837	0.0999998	0.000117755	2.482837
6.79949	3.992E-10	2.507333	0.0999999	0.000118265	2.507333
6.99949	3.858E-10	2.531868	0.1	0.000118771	2.531868
7.19949	4.035E-10	2.556385	0.0999999	0.000119275	2.556385
7.39949	3.413E-10	2.610472	0.1	0.000119775	2.610472
7.5995	3.931E-10	2.635031	0.0999999	0.000120274	2.635031
7.7995	4.024E-10	2.659558	0.1	0.000120772	2.659558
7.99947	1.783E-10	2.684076	0.0999998	0.000121265	2.684076
8.19949	3.761E-10	2.708651	0.0999999	0.000121756	2.708651
8.39949	4.104E-10	2.733183	0.1	0.000122244	2.733183
8.59949	4.178E-10	2.757697	0.1000001	0.000122729	2.757697
8.7995	4.128E-10	2.782208	0.0999998	0.000123214	2.782208
8.99949	4.209E-10	2.806774	0.0999999	0.000123692	2.806774
9.19949	4.059E-10	2.831358	0.0999999	0.000124172	2.831358
9.39949	4.179E-10	2.855881	0.1	0.000124653	2.855881
9.5995	4.448E-10	2.880586	0.1000001	0.000125129	2.880586
9.79951	4.406E-10	2.905127	0.0999999	0.000125602	2.905127
9.99949	4.296E-10	2.929743	0.0999999	0.000126072	2.929743
9.99949	3.577E-10	2.953098	0.0999999	0.000126076	2.953098
9.79951	3.079E-10	2.977608	0.0999999	0.000125604	2.977608
9.59949	2.868E-10	3.002136	0.0999997	0.000125132	3.002136
9.3995	2.169E-10	3.026648	0.0999999	0.000124657	3.026648
9.19951	1.798E-10	3.051182	0.1	0.000124177	3.051182
8.99951	2.405E-10	3.100546	0.0999999	0.000123699	3.100546
8.79949	1.588E-10	3.125144	0.0999999	0.000123215	3.125144
8.59951	1.569E-10	3.149723	0.1	0.000122725	3.149723
8.39952	1.319E-10	3.174242	0.1000002	0.000122229	3.174242
8.1995	1.555E-10	3.200586	0.1000001	0.000121735	3.200586
7.99949	1.034E-10	3.225107	0.1000001	0.000121234	3.225107
7.79951	8.48E-11	3.249718	0.1	0.000120731	3.249718
7.59949	8.84E-11	3.274226	0.0999997	0.000120225	3.274226
7.3995	7.75E-11	3.298734	0.1000001	0.000119719	3.298734
7.19949	6.63E-11	3.323242	0.1000001	0.00011921	3.323242
6.99951	5.56E-11	3.347761	0.1	0.000118697	3.347761
6.79951	3E-11	3.37227	0.1000001	0.000118183	3.37227
6.5995	3.68E-11	3.396814	0.0999998	0.000117666	3.396814
6.39949	5.87E-11	3.421316	0.1	0.000117147	3.421316
6.19949	1.39E-11	3.445912	0.1	0.000116625	3.445912
5.9995	-1.8E-11	3.4705	0.0999998	0.0001161	3.4705
5.79951	-2.2E-12	3.495023	0.1	0.000115573	3.495023
5.59951	1.55E-11	3.519561	0.0999999	0.00011504	3.519561
5.39949	-3.3E-12	3.544092	0.0999999	0.000114506	3.544092
5.1995	-3.46E-11	3.568627	0.1000001	0.000113971	3.568627
4.99949	3.11E-11	3.618067	0.0999999	0.000113434	3.618067
4.79949	-1.43E-11	3.642587	0.0999999	0.000112895	3.642587
4.59951	-3.16E-11	3.66713	0.1	0.000112353	3.66713
4.3995	-5.39E-11	3.691656	0.1000001	0.000111806	3.691656
4.1995	-4.67E-11	3.716176	0.0999999	0.000111261	3.716176
3.9995	-3.88E-11	3.740782	0.1000002	0.000110713	3.740782
3.79949	7.3E-11	3.765299	0.0999999	0.000110163	3.765299
3.59952	-6.62E-11	3.789953	0.0999998	0.000109615	3.789953
3.39949	-6.56E-11	3.81447	0.0999998	0.000109063	3.81447
3.1995	-7.04E-11	3.83901	0.1	0.000108515	3.83901
2.99951	-6.2E-11	3.863526	0.1000001	0.000107963	3.863526
2.7995	-9.15E-11	3.888063	0.1	0.000107413	3.888063
2.59952	-1.094E-10	3.912569	0.1000001	0.000106865	3.912569
2.39951	-8.14E-11	3.937209	0.1	0.000106315	3.937209
2.1995	-7.58E-11	3.961734	0.1000001	0.000105769	3.961734
1.9995	-1.213E-10	3.986277	0.1	0.000105221	3.986277
1.79951	-1.288E-10	4.010793	0.0999999	0.000104675	4.010793
1.59952	-1.099E-10	4.035316	0.1000002	0.00010413	4.035316
1.39951	-1.008E-10	4.059852	0.0999999	0.000103587	4.059852
1.19952	-8.49E-11	4.119881	0.1000001	0.000103049	4.119881
0.99949	-1.14E-10	4.144439	0.0999999	0.000102507	4.144439
0.79951	-1.437E-10	4.168964	0.0999999	0.00010197	4.168964
0.59953	-1.499E-10	4.193487	0.1000001	0.000101431	4.193487
0.39952	-1.291E-10	4.218062	0.0999999	0.000100896	4.218062
0.19952	-1.427E-10	4.242673	0.1000001	0.000100362	4.242673
-0.00049	-1.699E-10	4.267186	0.1000001	9.9831E-05	4.267186
-0.2005	-1.928E-10	4.291692	0.1	9.9304E-05	4.291692
-0.40049	-1.571E-10	4.316197	0.1000001	9.8781E-05	4.316197
-0.60048	-1.501E-10	4.340726	0.0999999	9.8267E-05	4.340726
-0.8005	-2.012E-10	4.365257	0.0999999	9.7762E-05	4.365257
-1.00049	-2.045E-10	4.389791	0.0999998	9.7266E-05	4.389791
-1.20051	-1.904E-10	4.414309	0.0999997	9.678E-05	4.414309
-1.4005	-1.921E-10	4.438917	0.1000001	9.6302E-05	4.438917
-1.60049	-1.901E-10	4.463509	0.1000001	9.5832E-05	4.463509
-1.8005	-2.054E-10	4.488033	0.1000001	9.5362E-05	4.488033
-2.00051	-2.231E-10	4.51256	0.0999998	9.4897E-05	4.51256
-2.20049	-2.149E-10	4.53708	0.0999998	9.443E-05	4.53708
-2.4005	-1.852E-10	4.561618	0.0999999	9.3964E-05	4.561618
-2.60048	-1.75E-10	4.617428	0.1	9.3498E-05	4.617428
-2.80049	-1.858E-10	4.641978	0.1000001	9.3029E-05	4.641978
-3.00049	-2.174E-10	4.666522	0.0999998	9.2558E-05	4.666522
-3.2005	-2.473E-10	4.691083	0.0999999	9.2089E-05	4.691083
-3.40049	-2.215E-10	4.715665	0.1000001	9.1617E-05	4.715665
-3.60049	-2.063E-10	4.740209	0.1	9.1145E-05	4.740209
-3.80049	-2.435E-10	4.764735	0.0999997	9.067E-05	4.764735
-4.00049	-2.573E-10	4.789424	0.0999998	9.0195E-05	4.789424
-4.20048	-2.313E-10	4.81397	0.1	8.972E-05	4.81397
-4.40049	-2.464E-10	4.838482	0.1	8.9243E-05	4.838482
-4.60048	-2.543E-10	4.863102	0.1000001	8.8764E-05	4.863102
-4.80048	-2.555E-10	4.890977	0.1000042	8.82013E-05	4.890977
-5.00049	-2.518E-10	4.915484	0.1000051	8.77201E-05	4.915484
-5.20049	-2.327E-10	4.940101	0.1000047	8.72356E-05	4.940101
-5.40049	-2.687E-10	4.96462	0.1000055	8.67537E-05	4.96462
-5.60049	-2.897E-10	4.989154	0.1000055	8.62679E-05	4.989154
-5.80049	-2.634E-10	5.013663	0.1000053	8.57793E-05	5.013663
-6.00049	-2.736E-10	5.038182	0.1000045	8.52893E-05	5.038182
-6.20049	-2.842E-10	5.062694	0.1000049	8.47971E-05	5.062694
-6.40048	-2.283E-10	5.125716	0.1000054	8.43068E-05	5.125716
-6.60049	-2.777E-10	5.150263	0.1000048	8.38116E-05	5.150263
-6.80047	-1.321E-10	5.174796	0.1000054	8.33153E-05	5.174796
-7.00048	-2.368E-10	5.199324	0.1000052	8.28158E-05	5.199324
-7.20047	-2.775E-10	5.223892	0.100005	8.23157E-05	5.223892
-7.40048	-2.823E-10	5.248431	0.1000058	8.18136E-05	5.248431
-7.60049	-2.851E-10	5.272962	0.100005	8.13089E-05	5.272962
-7.80047	-2.945E-10	5.297502	0.1000056	8.0801E-05	5.297502
-8.00048	-2.716E-10	5.322015	0.1000057	8.02941E-05	5.322015
-8.20048	-3.007E-10	5.346536	0.1000054	7.97831E-05	5.346536
-8.40048	-3.299E-10	5.371045	0.1000052	7.92694E-05	5.371045
-8.60049	-3.013E-10	5.395581	0.100006	7.87557E-05	5.395581
-8.80047	-2.862E-10	5.420091	0.1000066	7.82386E-05	5.420091
-9.00048	-3.204E-10	5.444918	0.1000059	7.77195E-05	5.444918
-9.20048	-3.356E-10	5.469567	0.1000056	7.7199E-05	5.469567
-9.40049	-3.143E-10	5.494069	0.1000061	7.66756E-05	5.494069
-9.60048	-5.147E-10	5.518593	0.1000052	7.61512E-05	5.518593
-9.80049	-3.418E-10	5.543097	0.100005	7.56263E-05	5.543097
-10.00047	-3.482E-10	5.567643	0.1000054	7.50983E-05	5.567643
-10.20049	-2.917E-10	5.624639	0.1000057	7.45781E-05	5.624639
-10.40048	-3.403E-10	5.649174	0.1000054	7.40463E-05	5.649174
-10.60049	-3.098E-10	5.673711	0.1000048	7.35117E-05	5.673711
-10.80048	-3.288E-10	5.698235	0.1000062	7.29757E-05	5.698235
-11.00047	-3.336E-10	5.7228	0.1000066	7.24364E-05	5.7228
-11.20049	-3.4E-10	5.747304	0.1000052	7.18945E-05	5.747304
-11.4005	-3.5E-10	5.77182	0.1000051	7.13499E-05	5.77182
-11.60048	-3.379E-10	5.796365	0.1000062	7.08057E-05	5.796365
-11.80048	-3.299E-10	5.820904	0.1000066	7.0257E-05	5.820904
-12.00048	-3.541E-10	5.845418	0.1000057	6.97051E-05	5.845418
#scan	iMeasureCycle=2	iMux=0	time=279.763	N=222	LocalTime=22/06/2023 09:37:31
#VGate(V)	IGate(A)	time(s)	VDrain(V)	IDrain(A)	time(s)
-12.00049	-8.08E-11	279.770504	0.1000062	6.97542E-05	279.770504
-11.80049	-6.9E-12	279.795386	0.1000065	7.0307E-05	279.795386
-11.60049	-5E-13	279.820965	0.1000068	7.08585E-05	279.820965
-11.40049	1.96E-11	279.845494	0.1000053	7.14064E-05	279.845494
-11.20049	2.72E-11	279.870032	0.1000057	7.1953E-05	279.870032
-11.00049	6.53E-11	279.894552	0.1000055	7.24961E-05	279.894552
-10.80049	6.61E-11	279.919414	0.1000065	7.30385E-05	279.919414
-10.60049	6.98E-11	279.944048	0.1000053	7.35778E-05	279.944048
-10.40049	5.83E-11	279.968565	0.1000055	7.41145E-05	279.968565
-10.20049	1.075E-10	279.993098	0.1000052	7.46492E-05	279.993098
-10.00049	1.14E-10	280.017562	0.1000052	7.51824E-05	280.017562
-9.80049	9.02E-11	280.04217	0.1000048	7.57129E-05	280.04217
-9.6005	1.029E-10	280.066685	0.1000052	7.62409E-05	280.066685
-9.4005	1.262E-10	280.091213	0.100005	7.67696E-05	280.091213
-9.2005	1.236E-10	280.115723	0.1000045	7.72932E-05	280.115723
-9.00049	1.326E-10	280.140233	0.1000052	7.78126E-05	280.140233
-8.80049	1.396E-10	280.16476	0.1000059	7.83296E-05	280.16476
-8.60051	1.323E-10	280.189274	0.100005	7.8843E-05	280.189274
-8.40049	1.423E-10	280.213792	0.1000056	7.93544E-05	280.213792
-8.2005	1.665E-10	280.238312	0.1000053	7.98641E-05	280.238312
-8.0005	1.622E-10	280.262879	0.1000055	8.03722E-05	280.262879
-7.80048	1.389E-10	280.287393	0.1000048	8.08766E-05	280.287393
-7.60049	1.269E-10	280.333746	0.100005	8.1379E-05	280.333746
-7.40048	1.514E-10	280.358394	0.1000056	8.18819E-05	280.358394
-7.20049	1.615E-10	280.382917	0.1000046	8.23828E-05	280.382917
-7.0005	1.638E-10	280.407465	0.1000046	8.28827E-05	280.407465
-6.80048	1.702E-10	280.432025	0.1000056	8.33821E-05	280.432025
-6.6005	1.819E-10	280.456571	0.1000052	8.38769E-05	280.456571
-6.4005	1.934E-10	280.481103	0.1000056	8.43712E-05	280.481103
-6.20049	1.76E-10	280.505618	0.1000051	8.48635E-05	280.505618
-6.00049	1.891E-10	280.530131	0.1000053	8.53546E-05	280.530131
-5.8005	2.093E-10	280.554651	0.1000062	8.58439E-05	280.554651
-5.6005	2.053E-10	280.579158	0.1000045	8.63322E-05	280.579158
-5.40051	2.002E-10	280.603731	0.1000049	8.68184E-05	280.603731
-5.20049	1.983E-10	280.628258	0.1000051	8.73017E-05	280.628258
-5.00051	2.189E-10	280.652768	0.1000043	8.77842E-05	280.652768
-4.80049	2.377E-10	280.677288	0.1000047	8.82657E-05	280.677288
-4.6005	2.09E-10	280.701793	0.1000047	8.87468E-05	280.701793
-4.4005	2.267E-10	280.726296	0.1000049	8.92254E-05	280.726296
-4.20048	2.286E-10	280.750812	0.1000048	8.97036E-05	280.750812
-4.0005	2.171E-10	280.775326	0.1000043	9.01797E-05	280.775326
-3.8005	1.908E-10	280.835311	0.1000045	9.06514E-05	280.835311
-3.60049	3.998E-10	280.859874	0.100005	9.11263E-05	280.859874
-3.40051	2.363E-10	280.884409	0.1000053	9.16006E-05	280.884409
-3.20049	2.327E-10	280.908973	0.1000044	9.20726E-05	280.908973
-3.0005	2.614E-10	280.933527	0.1000052	9.25447E-05	280.933527
-2.8005	2.608E-10	280.958066	0.100006	9.30145E-05	280.958066
-2.60049	2.4E-10	280.982586	0.1000052	9.34837E-05	280.982586
-2.4005	2.534E-10	281.007108	0.1000045	9.39522E-05	281.007108
-2.2005	2.656E-10	281.031627	0.1000043	9.44205E-05	281.031627
-2.0005	2E-10	281.05623	0.1000047	9.48877E-05	281.05623
-1.8005	2.065E-10	281.080753	0.1000046	9.53563E-05	281.080753
-1.60049	2.574E-10	281.105276	0.1000038	9.58273E-05	281.105276
-1.4005	2.691E-10	281.129803	0.1000047	9.63013E-05	281.129803
-1.20049	2.665E-10	281.154274	0.1000044	9.67846E-05	281.154274
-1.00051	2.807E-10	281.1788	0.1000044	9.72761E-05	281.1788
-0.80051	2.797E-10	281.203318	0.1000037	9.77769E-05	281.203318
-0.60049	2.568E-10	281.227818	0.1000044	9.8288E-05	281.227818
-0.40051	2.854E-10	281.252334	0.1000039	9.88038E-05	281.252334
-0.20051	3.062E-10	281.276916	0.1000041	9.93275E-05	281.276916
-0.00051	2.447E-10	281.336941	0.100004	9.98502E-05	281.336941
0.19949	2.616E-10	281.361498	0.1000038	0.0001003816	281.361498
0.3995	2.759E-10	281.386031	0.1000036	0.0001009154	281.386031
0.59951	2.833E-10	281.410552	0.1000034	0.0001014503	281.410552
0.79949	2.83E-10	281.435124	0.1000041	0.0001019874	281.435124
0.99949	3.065E-10	281.459648	0.1000031	0.0001025225	281.459648
1.19949	3.109E-10	281.484165	0.1000036	0.0001030627	281.484165
1.3995	2.955E-10	281.508678	0.1000042	0.0001036037	281.508678
1.5995	3.207E-10	281.533183	0.1000038	0.0001041447	281.533183
1.79949	3.373E-10	281.557754	0.1000034	0.0001046877	281.557754
1.99948	2.874E-10	281.587307	0.0999999	0.000105316	281.587307
2.19949	3.285E-10	281.611881	0.1000001	0.000105861	281.611881
2.3995	3.268E-10	281.636412	0.1	0.000106407	281.636412
2.5995	3.239E-10	281.660929	0.1	0.000106952	281.660929
2.79948	3.27E-10	281.685461	0.1000001	0.000107499	281.685461
2.9995	3.303E-10	281.709974	0.1000002	0.000108048	281.709974
3.1995	3.314E-10	281.734576	0.0999998	0.000108595	281.734576
3.39949	3.472E-10	281.759089	0.1000002	0.000109143	281.759089
3.5995	3.4E-10	281.783617	0.1	0.000109691	281.783617
3.7995	2.866E-10	281.841298	0.1	0.000110233	281.841298
3.99949	3.298E-10	281.865856	0.1	0.00011078	281.865856
4.19949	3.367E-10	281.890397	0.0999999	0.000111324	281.890397
4.39949	3.297E-10	281.914935	0.0999998	0.000111868	281.914935
4.5995	3.572E-10	281.939498	0.1	0.000112408	281.939498
4.79949	3.456E-10	281.964036	0.1000002	0.000112946	281.964036
4.99948	3.467E-10	281.988543	0.0999999	0.000113485	281.988543
5.19949	3.616E-10	282.013155	0.0999999	0.00011402	282.013155
5.39949	3.793E-10	282.037752	0.1000001	0.000114552	282.037752
5.59951	3.63E-10	282.06237	0.0999999	0.000115078	282.06237
5.79949	3.532E-10	282.086919	0.1000001	0.000115605	282.086919
5.99949	3.76E-10	282.111431	0.1000001	0.00011613	282.111431
6.19949	3.978E-10	282.135957	0.1	0.000116647	282.135957
6.39949	3.734E-10	282.16047	0.1	0.000117165	282.16047
6.5995	3.827E-10	282.185009	0.1	0.00011768	282.185009
6.79949	3.908E-10	282.209517	0.1	0.000118192	282.209517
6.99948	3.834E-10	282.234052	0.1	0.000118701	282.234052
7.1995	3.845E-10	282.258643	0.1	0.000119206	282.258643
7.3995	5.091E-10	282.283278	0.0999998	0.00011971	282.283278
7.59948	3.429E-10	282.340366	0.1000001	0.000120206	282.340366
7.7995	3.808E-10	282.364899	0.0999997	0.000120704	282.364899
7.99948	4.002E-10	282.389441	0.0999998	0.000121199	282.389441
8.19949	3.933E-10	282.414035	0.1	0.00012169	282.414035
8.3995	3.98E-10	282.438621	0.1000001	0.000122179	282.438621
8.5995	3.488E-10	282.463134	0.1000001	0.000122665	282.463134
8.7995	3.665E-10	282.487677	0.0999998	0.00012315	282.487677
8.99948	3.9E-10	282.512187	0.1000001	0.00012363	282.512187
9.1995	4.209E-10	282.536702	0.1	0.000124108	282.536702
9.3995	4.052E-10	282.561207	0.0999999	0.000124588	282.561207
9.59949	3.945E-10	282.585723	0.1000002	0.000125065	282.585723
9.7995	4.117E-10	282.610295	0.0999998	0.000125541	282.610295
9.99949	4.25E-10	282.634804	0.1	0.000126013	282.634804
9.99949	3.641E-10	282.658166	0.1	0.000126013	282.658166
9.79951	2.739E-10	282.682701	0.1	0.000125542	282.682701
9.59949	2.356E-10	282.707211	0.1	0.000125071	282.707211
9.3995	2.142E-10	282.731753	0.1	0.000124595	282.731753
9.19951	1.896E-10	282.756253	0.1	0.000124117	282.756253
8.9995	1.756E-10	282.780793	0.1000002	0.000123636	282.780793
8.79952	1.887E-10	282.841967	0.1000001	0.000123152	282.841967
8.5995	1.281E-10	282.866493	0.1000001	0.000122658	282.866493
8.3995	1.232E-10	282.89104	0.0999997	0.000122165	282.89104
8.19949	1.326E-10	282.915622	0.0999999	0.000121668	282.915622
7.99949	8.9E-11	282.940189	0.1000001	0.000121167	282.940189
7.79951	6.22E-11	282.9647	0.0999999	0.000120665	282.9647
7.59949	7.86E-11	282.989216	0.1000002	0.000120159	282.989216
7.39949	6.42E-11	283.013736	0.1000001	0.000119653	283.013736
7.1995	3.91E-11	283.038238	0.0999998	0.000119144	283.038238
6.99949	3.69E-11	283.062745	0.0999999	0.000118634	283.062745
6.7995	2.81E-11	283.087289	0.1	0.000118117	283.087289
6.5995	1.58E-11	283.111809	0.0999999	0.000117597	283.111809
6.3995	1.36E-11	283.13633	0.1	0.000117079	283.13633
6.1995	6E-12	283.160852	0.0999998	0.000116559	283.160852
5.9995	-1.6E-12	283.185364	0.0999998	0.000116033	283.185364
5.79951	-1.45E-11	283.209877	0.0999999	0.000115505	283.209877
5.5995	-1.66E-11	283.234391	0.1	0.000114974	283.234391
5.39949	-4.7E-12	283.258904	0.1	0.000114441	283.258904
5.1995	-3.74E-11	283.283462	0.1	0.000113903	283.283462
4.9995	1.11E-11	283.343482	0.0999999	0.000113368	283.343482
4.79949	-2.62E-11	283.368023	0.1	0.000112825	283.368023
4.59951	-2.57E-11	283.39263	0.1	0.000112285	283.39263
4.3995	-4.5E-11	283.417251	0.1000001	0.00011174	283.417251
4.19949	-5.47E-11	283.441807	0.1	0.000111191	283.441807
3.9995	-6.87E-11	283.466334	0.1000001	0.000110643	283.466334
3.79951	-7.46E-11	283.490857	0.1000001	0.000110094	283.490857
3.59951	-6.49E-11	283.515391	0.0999998	0.000109544	283.515391
3.39951	-7.16E-11	283.539895	0.1000003	0.000108994	283.539895
3.1995	-9.77E-11	283.564441	0.1	0.000108442	283.564441
2.9995	-9.58E-11	283.58896	0.1000002	0.000107893	283.58896
2.7995	-8.81E-11	283.613543	0.1	0.000107341	283.613543
2.59951	-9.75E-11	283.638061	0.0999999	0.00010679	283.638061
2.39951	-1.105E-10	283.662591	0.1000001	0.00010624	283.662591
2.1995	-6.7E-12	283.68711	0.1	0.000105692	283.68711
1.9995	-9.02E-11	283.711637	0.1	0.000105145	283.711637
1.7995	-1.017E-10	283.736152	0.0999999	0.0001046	283.736152
1.59951	-1.287E-10	283.760686	0.0999999	0.000104055	283.760686
1.39951	-1.273E-10	283.78529	0.1000001	0.000103512	283.78529
1.19951	-8.2E-11	283.84535	0.1000002	0.000102973	283.84535
0.9995	-1.648E-10	283.869901	0.0999999	0.000102433	283.869901
0.79949	-1.667E-10	283.89445	0.1000001	0.000101894	283.89445
0.5995	-1.278E-10	283.919087	0.0999999	0.000101358	283.919087
0.39951	-1.551E-10	283.943662	0.0999999	0.000100821	283.943662
0.19949	-1.689E-10	283.968165	0.1000001	0.000100288	283.968165
-0.00049	-1.388E-10	283.992667	0.1	9.9757E-05	283.992667
-0.20051	-1.542E-10	284.01719	0.1000001	9.9231E-05	284.01719
-0.4005	-1.77E-10	284.041797	0.1	9.8709E-05	284.041797
-0.60049	-1.786E-10	284.066314	0.1000001	9.8194E-05	284.066314
-0.80051	-1.725E-10	284.090834	0.1000001	9.7689E-05	284.090834
-1.00049	-1.664E-10	284.11536	0.1000001	9.7192E-05	284.11536
-1.2005	-1.831E-10	284.139889	0.1	9.6707E-05	284.139889
-1.40049	-1.891E-10	284.164408	0.1000001	9.6231E-05	284.164408
-1.60048	-1.891E-10	284.188957	0.1000001	9.5759E-05	284.188957
-1.8005	-1.984E-10	284.213484	0.1000001	9.5291E-05	284.213484
-2.00049	-1.923E-10	284.238007	0.0999999	9.4825E-05	284.238007
-2.2005	-2.042E-10	284.262518	0.0999999	9.4357E-05	284.262518
-2.40049	-2.24E-10	284.287198	0.1	9.3887E-05	284.287198
-2.60049	-1.551E-10	284.346796	0.0999999	9.3423E-05	284.346796
-2.80049	-1.881E-10	284.371352	0.1000002	9.2955E-05	284.371352
-3.00049	-1.876E-10	284.395912	0.1	9.2486E-05	284.395912
-3.20049	-2.152E-10	284.420542	0.1000001	9.2015E-05	284.420542
-3.40049	-2.047E-10	284.445112	0.1000001	9.1543E-05	284.445112
-3.60048	-2.168E-10	284.46965	0.1000002	9.1071E-05	284.46965
-3.80048	-2.285E-10	284.494162	0.0999999	9.0598E-05	284.494162
-4.00048	-2.124E-10	284.518703	0.1000004	9.0122E-05	284.518703
-4.20049	-2.256E-10	284.543214	0.1	8.9647E-05	284.543214
-4.40049	-2.422E-10	284.567723	0.1000001	8.9168E-05	284.567723
-4.60048	-2.244E-10	284.592243	0.1	8.869E-05	284.592243
-4.80049	-2.119E-10	284.616822	0.1	8.821E-05	284.616822
-5.00049	-2.451E-10	284.641344	0.1	8.7728E-05	284.641344
-5.20049	-2.169E-10	284.669209	0.1000037	8.71607E-05	284.669209
-5.4005	-2.558E-10	284.693748	0.1000047	8.66765E-05	284.693748
-5.60048	-2.384E-10	284.71828	0.1000049	8.61892E-05	284.71828
-5.80049	-2.583E-10	284.742812	0.1000043	8.57012E-05	284.742812
-6.0005	-2.748E-10	284.76733	0.1000046	8.52114E-05	284.76733
-6.20049	-2.55E-10	284.791848	0.1000049	8.472E-05	284.791848
-6.40049	-1.94E-10	284.851701	0.1000046	8.42282E-05	284.851701
-6.60049	-2.276E-10	284.876265	0.1000042	8.37303E-05	284.876265
-6.80048	-2.648E-10	284.900845	0.1000044	8.32345E-05	284.900845
-7.00049	-2.599E-10	284.925483	0.1000053	8.27363E-05	284.925483
-7.20047	-2.653E-10	284.950068	0.1000052	8.22349E-05	284.950068
-7.40048	-2.645E-10	284.974592	0.1000053	8.17334E-05	284.974592
-7.6005	-2.7E-10	284.999207	0.1000047	8.12279E-05	284.999207
-7.80048	-2.762E-10	285.023707	0.1000051	8.07206E-05	285.023707
-8.00049	-2.813E-10	285.048234	0.1000043	8.02115E-05	285.048234
-8.20048	-2.905E-10	285.072744	0.1000053	7.97016E-05	285.072744
-8.40048	-3E-13	285.097317	0.1000061	7.91895E-05	285.097317
-8.60048	-2.78E-10	285.121836	0.1000053	7.86738E-05	285.121836
-8.80047	-2.979E-10	285.146346	0.1000063	7.81574E-05	285.146346
-9.00047	-2.838E-10	285.170859	0.1000056	7.76379E-05	285.170859
-9.20048	-2.697E-10	285.19537	0.1000062	7.71177E-05	285.19537
-9.40048	-2.993E-10	285.219891	0.1000061	7.65925E-05	285.219891
-9.60049	-3.073E-10	285.244402	0.1000055	7.60688E-05	285.244402
-9.80048	-2.936E-10	285.268979	0.1000061	7.55448E-05	285.268979
-10.00047	-3.041E-10	285.293507	0.1000063	7.50165E-05	285.293507
-10.20048	-2.508E-10	285.350215	0.1000068	7.44934E-05	285.350215
-10.40048	-2.719E-10	285.374753	0.1000054	7.39615E-05	285.374753
-10.60049	-3.017E-10	285.399262	0.1000059	7.34271E-05	285.399262
-10.80047	-3.054E-10	285.423949	0.100006	7.28907E-05	285.423949
-11.00048	-3.021E-10	285.448524	0.1000048	7.23505E-05	285.448524
-11.20049	-3.118E-10	285.473045	0.1000055	7.18095E-05	285.473045
-11.40048	-5.903E-10	285.497587	0.1000062	7.1265E-05	285.497587
-11.60049	-3.254E-10	285.522117	0.1000055	7.0717E-05	285.522117
-11.80049	-3.487E-10	285.546661	0.1000063	7.01694E-05	285.546661
-12.00049	-3.362E-10	285.571188	0.1000062	6.96174E-05	285.571188
#scan	iMeasureCycle=3	iMux=0	time=319.872	N=222	LocalTime=22/06/2023 09:38:11
#VGate(V)	IGate(A)	time(s)	VDrain(V)	IDrain(A)	time(s)
-12.00047	-8.27E-11	319.879565	0.100006	6.97472E-05	319.879565
-11.80049	2.6E-12	319.904442	0.1000054	7.03008E-05	319.904442
-11.6005	-8.3E-12	319.930126	0.100005	7.08515E-05	319.930126
-11.4005	1.88E-11	319.954678	0.1000058	7.14013E-05	319.954678
-11.20049	3.42E-11	319.979371	0.1000054	7.19474E-05	319.979371
-11.00049	6.43E-11	320.003902	0.1000059	7.24923E-05	320.003902
-10.80049	6.18E-11	320.028594	0.1000058	7.30333E-05	320.028594
-10.6005	4.99E-11	320.053132	0.1000056	7.35733E-05	320.053132
-10.4005	8.12E-11	320.077698	0.1000049	7.41095E-05	320.077698
-10.2005	9.97E-11	320.10221	0.1000049	7.46433E-05	320.10221
-10.00049	8.68E-11	320.126748	0.1000048	7.5178E-05	320.126748
-9.80049	9.81E-11	320.151265	0.1000058	7.57097E-05	320.151265
-9.60048	1.188E-10	320.175797	0.1000054	7.62372E-05	320.175797
-9.4005	1.112E-10	320.200398	0.1000045	7.67645E-05	320.200398
-9.20049	1.255E-10	320.224926	0.100006	7.72894E-05	320.224926
-9.0005	1.249E-10	320.249446	0.1000051	7.78084E-05	320.249446
-8.80048	1.15E-10	320.273968	0.1000051	7.83252E-05	320.273968
-8.6005	1.441E-10	320.298471	0.1000047	7.88393E-05	320.298471
-8.4005	1.455E-10	320.323002	0.1000051	7.93508E-05	320.323002
-8.20048	2.772E-10	320.347584	0.1000058	7.98602E-05	320.347584
-8.00049	1.693E-10	320.372097	0.1000047	8.03684E-05	320.372097
-7.80048	1.57E-10	320.396626	0.1000057	8.08739E-05	320.396626
-7.60049	1.332E-10	320.442985	0.1000056	8.13756E-05	320.442985
-7.40048	1.532E-10	320.467511	0.1000056	8.18789E-05	320.467511
-7.20048	1.683E-10	320.492146	0.1000055	8.23807E-05	320.492146
-7.0005	1.72E-10	320.516663	0.100005	8.28798E-05	320.516663
-6.80049	1.718E-10	320.54125	0.1000048	8.33764E-05	320.54125
-6.6005	1.97E-10	320.565774	0.1000054	8.38726E-05	320.565774
-6.40048	1.837E-10	320.590287	0.1000051	8.43666E-05	320.590287
-6.20049	9.6E-11	320.614798	0.1000045	8.48589E-05	320.614798
-6.0005	1.62E-10	320.639401	0.1000052	8.53509E-05	320.639401
-5.8005	2.121E-10	320.663912	0.1000046	8.58402E-05	320.663912
-5.6005	1.924E-10	320.688491	0.1000038	8.63267E-05	320.688491
-5.4005	1.808E-10	320.713085	0.1000046	8.68134E-05	320.713085
-5.20049	2.116E-10	320.737554	0.1000043	8.72972E-05	320.737554
-5.0005	2.218E-10	320.762076	0.1000046	8.77788E-05	320.762076
-4.80049	2.118E-10	320.786585	0.1000044	8.82623E-05	320.786585
-4.60048	2.176E-10	320.811122	0.1000043	8.87419E-05	320.811122
-4.40051	2.234E-10	320.835638	0.1000053	8.92207E-05	320.835638
-4.20049	2.259E-10	320.860179	0.1000048	8.96975E-05	320.860179
-4.00049	2.349E-10	320.884707	0.1000048	9.01728E-05	320.884707
-3.80049	1.984E-10	320.944534	0.1000044	9.06463E-05	320.944534
-3.60048	2.08E-10	320.96906	0.1000043	9.11219E-05	320.96906
-3.4005	1.989E-10	320.993698	0.1000037	9.15937E-05	320.993698
-3.2005	2.464E-10	321.018272	0.1000047	9.20665E-05	321.018272
-3.0005	2.523E-10	321.042956	0.1000042	9.2537E-05	321.042956
-2.8005	2.3E-10	321.067496	0.1000045	9.30081E-05	321.067496
-2.6005	2.371E-10	321.092014	0.1000042	9.34752E-05	321.092014
-2.40049	2.615E-10	321.11655	0.1000039	9.39449E-05	321.11655
-2.2005	2.558E-10	321.141069	0.1000042	9.44131E-05	321.141069
-2.00049	2.508E-10	321.165615	0.1000044	9.48794E-05	321.165615
-1.8005	2.63E-10	321.190124	0.1000041	9.53481E-05	321.190124
-1.6005	2.644E-10	321.214663	0.1000043	9.58187E-05	321.214663
-1.40051	2.717E-10	321.239174	0.1000047	9.62952E-05	321.239174
-1.20051	2.742E-10	321.263717	0.1000048	9.6776E-05	321.263717
-1.00051	2.854E-10	321.28824	0.1000042	9.72665E-05	321.28824
-0.80051	2.668E-10	321.31278	0.1000039	9.77672E-05	321.31278
-0.60049	2.713E-10	321.337299	0.1000038	9.82764E-05	321.337299
-0.4005	3.072E-10	321.361901	0.1000045	9.8794E-05	321.361901
-0.20052	2.903E-10	321.386437	0.1000034	9.93163E-05	321.386437
-0.00051	2.288E-10	321.445883	0.1000031	9.98402E-05	321.445883
0.1995	2.765E-10	321.470395	0.100004	0.0001003729	321.470395
0.39952	2.785E-10	321.494967	0.1000045	0.0001009049	321.494967
0.59951	2.789E-10	321.51948	0.1000039	0.0001014408	321.51948
0.79949	3.111E-10	321.544056	0.1000042	0.0001019767	321.544056
0.9995	3.105E-10	321.568577	0.1000038	0.000102515	321.568577
1.1995	2.84E-10	321.593112	0.1000044	0.0001030533	321.593112
1.3995	3.093E-10	321.617618	0.1000029	0.0001035929	321.617618
1.59951	3.328E-10	321.64214	0.1000032	0.000104135	321.64214
1.79948	3.128E-10	321.666659	0.1000034	0.0001046782	321.666659
1.99948	3.041E-10	321.696336	0.1000003	0.000105301	321.696336
2.1995	3.222E-10	321.720849	0.0999999	0.000105848	321.720849
2.39949	3.281E-10	321.745439	0.0999998	0.000106394	321.745439
2.59949	4.428E-10	321.769966	0.1	0.00010694	321.769966
2.7995	3.385E-10	321.794489	0.1	0.000107489	321.794489
2.99949	3.566E-10	321.818991	0.0999997	0.000108036	321.818991
3.1995	3.536E-10	321.843503	0.1	0.000108586	321.843503
3.39949	3.524E-10	321.868019	0.0999999	0.000109133	321.868019
3.5995	3.453E-10	321.892534	0.1000001	0.00010968	321.892534
3.79948	3.037E-10	321.950359	0.1	0.00011022	321.950359
3.99949	3.315E-10	321.974883	0.0999999	0.000110768	321.974883
4.1995	3.424E-10	321.999499	0.1	0.000111316	321.999499
4.39949	3.645E-10	322.024068	0.1	0.000111858	322.024068
4.59949	3.564E-10	322.048679	0.0999999	0.000112401	322.048679
4.7995	3.477E-10	322.073201	0.0999999	0.00011294	322.073201
4.99949	2.591E-10	322.097732	0.0999999	0.000113475	322.097732
5.19948	3.752E-10	322.122236	0.0999999	0.000114009	322.122236
5.39949	3.715E-10	322.146773	0.1000001	0.000114539	322.146773
5.5995	3.559E-10	322.17129	0.0999998	0.000115069	322.17129
5.7995	3.658E-10	322.195829	0.1000001	0.000115596	322.195829
5.99949	3.965E-10	322.220339	0.0999999	0.000116119	322.220339
6.19948	3.831E-10	322.244873	0.0999998	0.00011664	322.244873
6.39949	3.695E-10	322.2694	0.1	0.000117157	322.2694
6.5995	3.816E-10	322.293913	0.1	0.000117671	322.293913
6.7995	3.868E-10	322.318419	0.1	0.000118186	322.318419
6.99949	3.984E-10	322.342927	0.1000001	0.000118693	322.342927
7.19948	3.927E-10	322.367506	0.1000001	0.0001192	322.367506
7.39949	3.849E-10	322.392031	0.1000001	0.000119703	322.392031
7.59949	3.546E-10	322.444846	0.1	0.000120199	322.444846
7.7995	3.746E-10	322.469385	0.1000001	0.000120698	322.469385
7.9995	3.798E-10	322.49398	0.1000001	0.000121193	322.49398
8.19949	3.971E-10	322.518488	0.0999999	0.000121684	322.518488
8.39949	4.159E-10	322.543071	0.1	0.000122174	322.543071
8.59949	3.95E-10	322.567585	0.1000002	0.000122663	322.567585
8.7995	3.988E-10	322.592113	0.1000002	0.000123147	322.592113
8.99949	4.217E-10	322.616621	0.1	0.000123626	322.616621
9.19948	4.074E-10	322.641138	0.1000001	0.000124105	322.641138
9.39948	4.196E-10	322.665654	0.0999999	0.000124587	322.665654
9.59948	4.201E-10	322.69025	0.0999999	0.000125064	322.69025
9.79949	4.064E-10	322.714773	0.0999998	0.000125538	322.714773
9.99949	4.256E-10	322.73932	0.1000001	0.000126011	322.73932
9.99948	3.866E-10	322.76268	0.0999998	0.000126014	322.76268
9.79952	2.76E-10	322.787219	0.1000002	0.00012554	322.787219
9.59949	2.306E-10	322.811718	0.1	0.000125069	322.811718
9.39951	2.293E-10	322.83625	0.0999999	0.000124594	322.83625
9.1995	1.897E-10	322.860722	0.1	0.000124115	322.860722
8.99949	1.725E-10	322.885251	0.0999999	0.000123638	322.885251
8.79951	1.98E-10	322.934669	0.1000001	0.00012315	322.934669
8.5995	1.481E-10	322.959254	0.1	0.000122658	322.959254
8.3995	1.285E-10	322.983839	0.0999999	0.000122167	322.983839
8.1995	1.235E-10	323.008453	0.0999999	0.000121668	323.008453
7.99949	1.166E-10	323.034693	0.1	0.000121169	323.034693
7.79951	8.34E-11	323.059214	0.1	0.000120663	323.059214
7.5995	8.3E-11	323.083749	0.1	0.000120158	323.083749
7.3995	6.57E-11	323.10827	0.0999998	0.000119653	323.10827
7.19949	4.73E-11	323.132879	0.1000001	0.000119143	323.132879
6.99949	3.92E-11	323.157377	0.0999999	0.000118632	323.157377
6.79951	2.85E-10	323.1819	0.1000002	0.000118119	323.1819
6.5995	4.37E-11	323.206418	0.0999998	0.0001176	323.206418
6.3995	2.23E-11	323.230938	0.1	0.00011708	323.230938
6.19949	8.1E-12	323.255458	0.1	0.000116559	323.255458
5.9995	2.67E-11	323.27998	0.1000001	0.000116034	323.27998
5.79952	8.6E-12	323.304501	0.1000001	0.000115504	323.304501
5.59951	-1.96E-11	323.329019	0.0999998	0.000114974	323.329019
5.39949	-2.04E-11	323.353571	0.0999999	0.000114441	323.353571
5.1995	-2.01E-11	323.378102	0.0999998	0.000113906	323.378102
4.9995	-2.13E-11	323.402623	0.1000001	0.000113366	323.402623
4.79951	4.4E-12	323.4525	0.1	0.000112827	323.4525
4.5995	-1.94E-11	323.477034	0.0999999	0.000112283	323.477034
4.3995	-2.76E-11	323.501609	0.1000002	0.000111739	323.501609
4.19951	-1.175E-10	323.526149	0.0999999	0.000111192	323.526149
3.9995	-6.16E-11	323.550719	0.0999999	0.000110645	323.550719
3.79949	-6.83E-11	323.57526	0.1	0.000110094	323.57526
3.5995	-7.73E-11	323.599773	0.1000001	0.000109545	323.599773
3.3995	-6.08E-11	323.624298	0.1	0.000108995	323.624298
3.1995	-9.26E-11	323.648801	0.1	0.000108443	323.648801
2.99949	-1.066E-10	323.673322	0.1	0.000107894	323.673322
2.79949	-9.26E-11	323.697919	0.1000001	0.000107342	323.697919
2.59951	-8.52E-11	323.722439	0.0999997	0.000106793	323.722439
2.39949	-1.056E-10	323.746953	0.1000001	0.000106243	323.746953
2.19951	-1.296E-10	323.771469	0.1000001	0.000105695	323.771469
1.9995	-1.047E-10	323.795979	0.0999999	0.000105149	323.795979
1.79949	-1.178E-10	323.820501	0.1	0.000104601	323.820501
1.59951	-1.305E-10	323.84503	0.0999999	0.000104056	323.84503
1.3995	-1.252E-10	323.869553	0.0999999	0.000103514	323.869553
1.19949	-1.38E-10	323.894071	0.1	0.000102973	323.894071
0.99952	-9.25E-11	323.954114	0.1000001	0.000102437	323.954114
0.7995	-1.197E-10	323.978669	0.0999999	0.000101898	323.978669
0.59951	-1.101E-10	324.003262	0.1	0.00010136	324.003262
0.39952	-1.457E-10	324.02784	0.0999998	0.000100824	324.02784
0.19951	-1.72E-10	324.052414	0.1000001	0.00010029	324.052414
-0.00049	-1.351E-10	324.076962	0.0999998	9.9758E-05	324.076962
-0.20051	-1.468E-10	324.101504	0.1000002	9.9231E-05	324.101504
-0.40048	-1.757E-10	324.126022	0.1	9.871E-05	324.126022
-0.60048	-1.764E-10	324.150544	0.0999999	9.8194E-05	324.150544
-0.80049	-1.715E-10	324.174993	0.0999999	9.7689E-05	324.174993
-1.0005	-1.792E-10	324.199525	0.1	9.7194E-05	324.199525
-1.20049	-1.798E-10	324.224039	0.0999999	9.671E-05	324.224039
-1.40049	-1.869E-10	324.24857	0.1000002	9.6232E-05	324.24857
-1.60049	-1.976E-10	324.273095	0.1	9.5761E-05	324.273095
-1.80051	-1.992E-10	324.297629	0.0999996	9.5294E-05	324.297629
-2.0005	-1.95E-10	324.322141	0.0999999	9.4827E-05	324.322141
-2.20048	-1.992E-10	324.346677	0.1000001	9.436E-05	324.346677
-2.4005	-2.201E-10	324.371259	0.0999998	9.3894E-05	324.371259
-2.60049	-2.167E-10	324.395795	0.1000002	9.3427E-05	324.395795
-2.8005	-1.601E-10	324.455705	0.0999996	9.2962E-05	324.455705
-3.00048	-1.856E-10	324.480238	0.1	9.2491E-05	324.480238
-3.20051	-2.142E-10	324.504876	0.0999999	9.2021E-05	324.504876
-3.40048	-2.799E-10	324.5294	0.0999998	9.1548E-05	324.5294
-3.60044	-2.184E-10	324.554003	0.1000002	9.1076E-05	324.554003
-3.80044	-2.307E-10	324.578525	0.1	9.0601E-05	324.578525
-4.00045	-2.154E-10	324.60307	0.0999998	9.0127E-05	324.60307
-4.20045	-2.3E-10	324.627582	0.1	8.9649E-05	324.627582
-4.40046	-1.553E-10	324.652116	0.0999999	8.9171E-05	324.652116
-4.60049	-2.497E-10	324.676628	0.0999998	8.8693E-05	324.676628
-4.80048	-2.354E-10	324.70455	0.1000034	8.81306E-05	324.70455
-5.00049	-2.347E-10	324.729087	0.1000051	8.76511E-05	324.729087
-5.20049	-2.445E-10	324.753605	0.100004	8.71676E-05	324.753605
-5.40049	-1.362E-10	324.778154	0.1000053	8.66836E-05	324.778154
-5.60049	-2.117E-10	324.802666	0.1000057	8.61982E-05	324.802666
-5.80049	-3.094E-10	324.827198	0.100004	8.57092E-05	324.827198
-6.0005	-2.848E-10	324.851714	0.1000044	8.52193E-05	324.851714
-6.20049	-2.689E-10	324.876251	0.1000042	8.47287E-05	324.876251
-6.40048	-2.555E-10	324.90077	0.1000047	8.42352E-05	324.90077
-6.60048	-2.151E-10	324.960139	0.1000046	8.37416E-05	324.960139
-6.80047	-2.64E-10	324.984691	0.1000051	8.32443E-05	324.984691
-7.00048	-2.53E-10	325.009279	0.1000046	8.27457E-05	325.009279
-7.20048	-2.697E-10	325.033838	0.1000052	8.22445E-05	325.033838
-7.40049	-2.696E-10	325.058413	0.1000047	8.17429E-05	325.058413
-7.60048	-2.714E-10	325.08293	0.1000057	8.12382E-05	325.08293
-7.80048	-2.838E-10	325.107465	0.1000053	8.07313E-05	325.107465
-8.00049	-2.908E-10	325.13197	0.1000048	8.02228E-05	325.13197
-8.20049	-2.979E-10	325.156487	0.1000033	7.97117E-05	325.156487
-8.40049	-2.745E-10	325.181084	0.1000052	7.9201E-05	325.181084
-8.60049	-2.882E-10	325.205614	0.1000055	7.86854E-05	325.205614
-8.80048	-3.105E-10	325.230124	0.1000053	7.81673E-05	325.230124
-9.00049	-3.055E-10	325.254669	0.1000055	7.76479E-05	325.254669
-9.20049	-2.891E-10	325.279189	0.1000053	7.71281E-05	325.279189
-9.40048	-3.082E-10	325.303816	0.1000051	7.66034E-05	325.303816
-9.60049	-3.172E-10	325.328328	0.1000055	7.60793E-05	325.328328
-9.80048	-3.145E-10	325.352854	0.1000054	7.55551E-05	325.352854
-10.00048	-3.182E-10	325.377434	0.1000054	7.50281E-05	325.377434
-10.20049	-3.055E-10	325.402052	0.1000054	7.44991E-05	325.402052
-10.40048	-2.556E-10	325.458956	0.1000061	7.39754E-05	325.458956
-10.60049	-3.017E-10	325.483476	0.1000052	7.34398E-05	325.483476
-10.80048	-3.235E-10	325.508111	0.1000057	7.2904E-05	325.508111
-11.00048	-3.069E-10	325.532621	0.1000045	7.23639E-05	325.532621
-11.20049	-3.23E-10	325.557203	0.1000054	7.18212E-05	325.557203
-11.40049	-3.294E-10	325.581719	0.1000056	7.12783E-05	325.581719
-11.60049	-3.217E-10	325.60626	0.1000049	7.07311E-05	325.60626
-11.80049	-3.456E-10	325.630775	0.1000065	7.01825E-05	325.630775
-12.00047	-3.388E-10	325.655315	0.1000064	6.96318E-05	325.655315
