#scan	iMeasureCycle=1	iMux=0	time=0.038	N=222	LocalTime=22/06/2023 08:14:51
#VGate(V)	IGate(A)	time(s)	VDrain(V)	IDrain(A)	time(s)
-12.0005	-3.1504E-09	0.06378	0.1000071	6.76193E-05	0.06378
-11.8005	-2.9818E-09	0.088737	0.1000064	6.8181E-05	0.088737
-11.6005	-1.1445E-09	0.113265	0.1000058	6.87428E-05	0.113265
-11.40049	-4.86E-10	0.137792	0.100006	6.93E-05	0.137792
-11.2005	-3.448E-10	0.162313	0.1000058	6.98539E-05	0.162313
-11.00047	-2.173E-10	0.186846	0.1000058	7.04065E-05	0.186846
-10.80051	-1.518E-10	0.211365	0.1000065	7.09578E-05	0.211365
-10.60051	-9.73E-11	0.235892	0.1000051	7.15043E-05	0.235892
-10.40047	-8.16E-11	0.260413	0.1000055	7.20503E-05	0.260413
-10.20048	-3.55E-11	0.284995	0.1000061	7.25929E-05	0.284995
-10.00048	-1.32E-11	0.309616	0.100006	7.31349E-05	0.309616
-9.80047	-1.15E-11	0.334143	0.1000063	7.3674E-05	0.334143
-9.6005	1.34E-11	0.358663	0.1000049	7.42106E-05	0.358663
-9.40048	3.79E-11	0.383198	0.1000054	7.4745E-05	0.383198
-9.20048	3.82E-11	0.40773	0.1000053	7.52784E-05	0.40773
-9.00049	4.73E-11	0.432251	0.1000053	7.58053E-05	0.432251
-8.80048	6.5E-11	0.456761	0.1000056	7.63313E-05	0.456761
-8.60051	7.01E-11	0.481275	0.1000044	7.68506E-05	0.481275
-8.4005	8.14E-11	0.505788	0.1000057	7.73709E-05	0.505788
-8.20047	8.49E-11	0.530314	0.1000054	7.78878E-05	0.530314
-8.0005	1.151E-10	0.554818	0.1000056	7.84036E-05	0.554818
-7.80048	1.034E-10	0.579428	0.1000052	7.89155E-05	0.579428
-7.6005	7.92E-11	0.627338	0.1000046	7.94235E-05	0.627338
-7.4005	1.04E-10	0.651875	0.1000056	7.99358E-05	0.651875
-7.20049	1.024E-10	0.676402	0.1000039	8.04433E-05	0.676402
-7.00049	1.448E-10	0.700919	0.1000046	8.09507E-05	0.700919
-6.80049	1.377E-10	0.725511	0.1000046	8.14556E-05	0.725511
-6.60048	1.463E-10	0.750033	0.1000046	8.19585E-05	0.750033
-6.40051	1.521E-10	0.774577	0.100005	8.24604E-05	0.774577
-6.20051	1.584E-10	0.799156	0.1000052	8.29603E-05	0.799156
-6.00051	1.725E-10	0.823669	0.1000049	8.34581E-05	0.823669
-5.80049	1.654E-10	0.848183	0.1000042	8.39542E-05	0.848183
-5.60049	1.794E-10	0.872698	0.1000054	8.44509E-05	0.872698
-5.4005	1.901E-10	0.897211	0.1000042	8.49428E-05	0.897211
-5.20049	1.779E-10	0.921729	0.1000039	8.54341E-05	0.921729
-5.0005	2.014E-10	0.946296	0.1000052	8.59262E-05	0.946296
-4.80047	2.035E-10	0.970829	0.1000042	8.64161E-05	0.970829
-4.6005	3.065E-10	0.995344	0.1000045	8.69029E-05	0.995344
-4.40051	2.476E-10	1.019857	0.1000048	8.73907E-05	1.019857
-4.20051	2.33E-10	1.044373	0.100006	8.78768E-05	1.044373
-4.0005	2.233E-10	1.068884	0.1000052	8.83615E-05	1.068884
-3.80049	1.8E-10	1.124208	0.100005	8.8841E-05	1.124208
-3.6005	2.095E-10	1.148755	0.1000046	8.93244E-05	1.148755
-3.40049	2.247E-10	1.173261	0.1000048	8.98059E-05	1.173261
-3.2005	2.266E-10	1.197801	0.1000046	9.02859E-05	1.197801
-3.00048	2.401E-10	1.222365	0.1000053	9.07665E-05	1.222365
-2.80048	2.33E-10	1.246884	0.1000049	9.12456E-05	1.246884
-2.60049	2.513E-10	1.271409	0.1000049	9.17226E-05	1.271409
-2.40048	9.57E-11	1.295991	0.1000042	9.21965E-05	1.295991
-2.2005	2.081E-10	1.320609	0.1000036	9.26722E-05	1.320609
-2.00051	2.406E-10	1.34515	0.1000041	9.31468E-05	1.34515
-1.80048	2.63E-10	1.369692	0.1000046	9.36239E-05	1.369692
-1.60049	2.483E-10	1.394205	0.1000041	9.41011E-05	1.394205
-1.40052	2.597E-10	1.418752	0.1000044	9.45848E-05	1.418752
-1.2005	2.734E-10	1.443268	0.100004	9.50744E-05	1.443268
-1.00051	2.716E-10	1.467786	0.1000041	9.55716E-05	1.467786
-0.80051	2.745E-10	1.492313	0.1000043	9.60812E-05	1.492313
-0.6005	2.768E-10	1.516825	0.1000042	9.65983E-05	1.516825
-0.4005	2.853E-10	1.541352	0.100004	9.71235E-05	1.541352
-0.20049	2.948E-10	1.565886	0.1000036	9.76541E-05	1.565886
-0.00051	2.516E-10	1.614492	0.1000043	9.81833E-05	1.614492
0.1995	2.732E-10	1.639075	0.1000033	9.87233E-05	1.639075
0.39951	2.73E-10	1.663654	0.1000042	9.92683E-05	1.663654
0.59951	3.053E-10	1.688177	0.1000038	9.98111E-05	1.688177
0.79948	2.875E-10	1.714508	0.1000035	0.0001003537	1.714508
0.99949	2.92E-10	1.73903	0.1000039	0.0001009008	1.73903
1.19948	3.059E-10	1.763565	0.1000034	0.0001014497	1.763565
1.39949	3.154E-10	1.788083	0.1000033	0.0001019995	1.788083
1.5995	3.202E-10	1.812682	0.1000037	0.0001025499	1.812682
1.7995	3.133E-10	1.8372	0.1000031	0.0001031031	1.8372
1.9995	3.131E-10	1.861716	0.1000032	0.0001036575	1.861716
2.19949	3.501E-10	1.886224	0.100004	0.0001042132	1.886224
2.3995	2.889E-10	1.915875	0.1	0.000104846	1.915875
2.59952	3.325E-10	1.940413	0.0999999	0.000105403	1.940413
2.79949	3.441E-10	1.964963	0.1	0.00010596	1.964963
2.99951	3.206E-10	1.989497	0.1000001	0.000106517	1.989497
3.19951	3.528E-10	2.0141	0.1	0.000107076	2.0141
3.39952	3.481E-10	2.038652	0.1	0.000107634	2.038652
3.59947	3.404E-10	2.063181	0.1	0.00010819	2.063181
3.79949	3.519E-10	2.087773	0.1000001	0.000108746	2.087773
3.99947	2.901E-10	2.134502	0.1	0.000109298	2.134502
4.19948	3.483E-10	2.159033	0.0999999	0.000109854	2.159033
4.3995	3.591E-10	2.183547	0.0999999	0.000110405	2.183547
4.59949	3.471E-10	2.208069	0.1000001	0.000110956	2.208069
4.79948	3.481E-10	2.232633	0.1000001	0.000111503	2.232633
4.99948	3.678E-10	2.257151	0.1	0.000112048	2.257151
5.19949	3.677E-10	2.281677	0.1000001	0.000112592	2.281677
5.39948	3.675E-10	2.306252	0.1	0.000113131	2.306252
5.5995	3.691E-10	2.330786	0.0999999	0.000113669	2.330786
5.7995	3.819E-10	2.355297	0.0999999	0.000114205	2.355297
5.9995	3.736E-10	2.379813	0.0999998	0.000114736	2.379813
6.19949	4.22E-10	2.404325	0.1	0.000115265	2.404325
6.39949	4.329E-10	2.428839	0.0999998	0.00011579	2.428839
6.5995	3.929E-10	2.453357	0.1000001	0.000116313	2.453357
6.79951	3.862E-10	2.477855	0.0999999	0.000116834	2.477855
6.99947	4.106E-10	2.502361	0.1	0.000117348	2.502361
7.19949	4.011E-10	2.526868	0.1	0.000117864	2.526868
7.39948	4.009E-10	2.551383	0.1000001	0.000118374	2.551383
7.5995	3.904E-10	2.575897	0.0999999	0.00011888	2.575897
7.7995	3.474E-10	2.633592	0.0999999	0.00011938	2.633592
7.99949	3.63E-10	2.658123	0.0999999	0.000119884	2.658123
8.19949	2.88E-10	2.682629	0.1	0.000120386	2.682629
8.3995	3.87E-10	2.707129	0.1000001	0.000120879	2.707129
8.5995	3.812E-10	2.731695	0.1000001	0.000121373	2.731695
8.79951	4.044E-10	2.756207	0.1	0.000121866	2.756207
8.9995	4.085E-10	2.780722	0.1	0.000122353	2.780722
9.19949	4.019E-10	2.805235	0.0999999	0.000122842	2.805235
9.39949	3.961E-10	2.829756	0.1000002	0.000123328	2.829756
9.59948	4.208E-10	2.854272	0.0999999	0.000123812	2.854272
9.79951	4.147E-10	2.878789	0.1	0.000124295	2.878789
9.99951	4.137E-10	2.903296	0.0999999	0.000124773	2.903296
9.99948	3.733E-10	2.926643	0.1	0.000124775	2.926643
9.79952	2.865E-10	2.951151	0.1	0.000124295	2.951151
9.59951	2.342E-10	2.975734	0.1	0.000123816	2.975734
9.39951	2.1E-10	3.000245	0.0999999	0.000123333	3.000245
9.19949	1.927E-10	3.024762	0.0999997	0.000122846	3.024762
8.99951	1.626E-10	3.049277	0.1	0.000122362	3.049277
8.79951	1.502E-10	3.073778	0.0999998	0.000121868	3.073778
8.5995	1.819E-10	3.135082	0.0999999	0.000121365	3.135082
8.39953	1.317E-10	3.159611	0.1	0.000120861	3.159611
8.1995	9.78E-11	3.184124	0.0999999	0.000120358	3.184124
7.9995	1.084E-10	3.208625	0.1000001	0.000119849	3.208625
7.79952	8.63E-11	3.233194	0.1	0.000119335	3.233194
7.59951	5.94E-11	3.257713	0.1	0.000118823	3.257713
7.39949	5.46E-11	3.282224	0.0999999	0.000118308	3.282224
7.19949	6.22E-11	3.306805	0.0999999	0.00011779	3.306805
6.99949	3.63E-11	3.331533	0.1	0.000117267	3.331533
6.79949	2.21E-11	3.356161	0.0999998	0.000116745	3.356161
6.59949	2.59E-11	3.380686	0.0999997	0.00011622	3.380686
6.39951	2.03E-11	3.405203	0.0999998	0.000115689	3.405203
6.1995	9E-13	3.429827	0.1000001	0.000115157	3.429827
5.99951	-1.5E-11	3.454333	0.1	0.000114623	3.454333
5.79952	9.8E-12	3.47887	0.0999999	0.000114087	3.47887
5.5995	-1.16E-11	3.503391	0.1	0.000113547	3.503391
5.39948	-3.23E-11	3.527929	0.1	0.000113006	3.527929
5.19949	-1.82E-11	3.552447	0.1	0.00011246	3.552447
4.9995	-3.51E-11	3.576981	0.1000001	0.000111909	3.576981
4.79949	2.5E-12	3.63689	0.0999999	0.000111362	3.63689
4.59951	-3.02E-11	3.661439	0.1000002	0.000110809	3.661439
4.39947	-2.29E-11	3.68595	0.1	0.000110254	3.68595
4.1995	-5.32E-11	3.710486	0.0999999	0.000109696	3.710486
3.9995	-7.07E-11	3.735037	0.1000001	0.000109138	3.735037
3.79951	-5.25E-11	3.759565	0.1	0.000108579	3.759565
3.5995	-7.4E-11	3.784081	0.0999999	0.000108019	3.784081
3.39948	-6.86E-11	3.808607	0.1	0.000107457	3.808607
3.1995	2.93E-11	3.833119	0.0999999	0.000106896	3.833119
2.99951	-7.97E-11	3.857639	0.1	0.000106334	3.857639
2.7995	-8.29E-11	3.882154	0.1000002	0.000105775	3.882154
2.59952	-8.86E-11	3.90666	0.1	0.000105214	3.90666
2.3995	-9.44E-11	3.931174	0.1000001	0.000104655	3.931174
2.19951	-9.97E-11	3.955703	0.0999999	0.000104096	3.955703
1.9995	-1.198E-10	3.980273	0.1	0.000103537	3.980273
1.79951	-1.057E-10	4.004801	0.1	0.00010298	4.004801
1.59953	-1.176E-10	4.029313	0.1000002	0.000102426	4.029313
1.3995	-1.344E-10	4.053833	0.1	0.000101875	4.053833
1.19951	-4.107E-10	4.078339	0.1000001	0.000101321	4.078339
0.9995	-1.088E-10	4.134113	0.1	0.000100774	4.134113
0.7995	-1.342E-10	4.158662	0.1	0.000100226	4.158662
0.5995	-1.39E-10	4.183175	0.0999999	9.9681E-05	4.183175
0.39953	-1.385E-10	4.207692	0.0999999	9.9135E-05	4.207692
0.19951	-1.57E-10	4.232248	0.1	9.8591E-05	4.232248
-0.00051	-1.661E-10	4.25679	0.0999999	9.8052E-05	4.25679
-0.20048	-1.587E-10	4.281293	0.0999998	9.7513E-05	4.281293
-0.4005	-1.731E-10	4.305833	0.1000001	9.6984E-05	4.305833
-0.60047	-1.639E-10	4.330364	0.1	9.6462E-05	4.330364
-0.8005	-1.692E-10	4.354907	0.0999999	9.5949E-05	4.354907
-1.00049	-1.894E-10	4.379421	0.1	9.5447E-05	4.379421
-1.20051	-1.834E-10	4.403951	0.1000001	9.4955E-05	4.403951
-1.4005	-1.768E-10	4.428454	0.1	9.447E-05	4.428454
-1.60051	-2.029E-10	4.452997	0.0999998	9.3991E-05	4.452997
-1.80051	-2.11E-10	4.477523	0.1	9.3516E-05	4.477523
-2.00048	-1.991E-10	4.502049	0.1	9.3041E-05	4.502049
-2.20048	-1.994E-10	4.526552	0.1000001	9.2566E-05	4.526552
-2.4005	-2.106E-10	4.551099	0.1	9.209E-05	4.551099
-2.60049	-2.233E-10	4.575624	0.1	9.1615E-05	4.575624
-2.80049	-1.417E-10	4.637696	0.1	9.114E-05	4.637696
-3.00049	-1.924E-10	4.662304	0.1	9.066E-05	4.662304
-3.20048	-2.052E-10	4.686832	0.1	9.0181E-05	4.686832
-3.40048	-2.205E-10	4.711362	0.0999998	8.97E-05	4.711362
-3.60049	-2.054E-10	4.735939	0.0999998	8.9219E-05	4.735939
-3.80049	-2.287E-10	4.760495	0.1000001	8.8739E-05	4.760495
-4.00049	-2.113E-10	4.788357	0.1000048	8.81784E-05	4.788357
-4.20049	-2.348E-10	4.812868	0.1000044	8.76928E-05	4.812868
-4.4005	-2.35E-10	4.837406	0.1000052	8.72081E-05	4.837406
-4.60049	-2.339E-10	4.861927	0.1000046	8.67201E-05	4.861927
-4.80049	-2.393E-10	4.886459	0.1000042	8.62315E-05	4.886459
-5.0005	-2.593E-10	4.910961	0.1000041	8.57411E-05	4.910961
-5.2005	-2.352E-10	4.935485	0.1000043	8.52499E-05	4.935485
-5.40049	-2.569E-10	4.960103	0.1000054	8.47583E-05	4.960103
-5.60048	-2.669E-10	4.984679	0.1000052	8.42619E-05	4.984679
-5.80048	-2.536E-10	5.009193	0.1000051	8.37661E-05	5.009193
-6.00048	-2.662E-10	5.033708	0.1000052	8.32677E-05	5.033708
-6.2005	-2.823E-10	5.058224	0.1000052	8.27684E-05	5.058224
-6.40049	-2.71E-10	5.082748	0.100005	8.22667E-05	5.082748
-6.60049	-1.953E-10	5.144173	0.1000049	8.17653E-05	5.144173
-6.80048	-2.49E-10	5.168709	0.1000047	8.12591E-05	5.168709
-7.00048	-2.782E-10	5.193227	0.1000053	8.07517E-05	5.193227
-7.20049	-2.711E-10	5.217747	0.1000053	8.0243E-05	5.217747
-7.40051	-1.923E-10	5.242311	0.1000053	7.97312E-05	5.242311
-7.60049	-2.598E-10	5.266858	0.1000059	7.92194E-05	5.266858
-7.80046	-2.822E-10	5.291366	0.1000052	7.87033E-05	5.291366
-8.00047	-2.842E-10	5.316048	0.1000054	7.8186E-05	5.316048
-8.20049	-2.82E-10	5.340594	0.1000055	7.76662E-05	5.340594
-8.40048	-2.92E-10	5.365211	0.1000055	7.71443E-05	5.365211
-8.60047	-2.958E-10	5.389724	0.1000057	7.66213E-05	5.389724
-8.80046	-2.931E-10	5.41425	0.1000057	7.60946E-05	5.41425
-9.00048	-3.056E-10	5.43875	0.1000058	7.55679E-05	5.43875
-9.20049	-3.072E-10	5.463229	0.1000062	7.50391E-05	5.463229
-9.40048	-3.849E-10	5.487747	0.1000059	7.4506E-05	5.487747
-9.60052	-3.283E-10	5.51226	0.1000061	7.39736E-05	5.51226
-9.80046	-3.342E-10	5.536773	0.1000058	7.34411E-05	5.536773
-10.00048	-3.148E-10	5.561288	0.1000067	7.29052E-05	5.561288
-10.20047	-3.2E-10	5.585813	0.1000063	7.23682E-05	5.585813
-10.40047	-2.731E-10	5.643211	0.1000061	7.18341E-05	5.643211
-10.60047	-3.032E-10	5.667831	0.1000055	7.12913E-05	5.667831
-10.80049	-3.187E-10	5.692357	0.100006	7.07464E-05	5.692357
-11.00046	-3.401E-10	5.71688	0.100006	7.01973E-05	5.71688
-11.20049	-3.105E-10	5.741467	0.1000055	6.96475E-05	5.741467
-11.40048	-3.23E-10	5.765995	0.1000065	6.90959E-05	5.765995
-11.60053	-3.487E-10	5.790533	0.1000064	6.85408E-05	5.790533
-11.80049	-3.331E-10	5.815038	0.1000062	6.79822E-05	5.815038
-12.00048	-3.356E-10	5.839565	0.1000067	6.74225E-05	5.839565
#scan	iMeasureCycle=2	iMux=0	time=279.704	N=222	LocalTime=22/06/2023 08:19:31
#VGate(V)	IGate(A)	time(s)	VDrain(V)	IDrain(A)	time(s)
-12.00047	-7.2E-11	279.711474	0.100006	6.74611E-05	279.711474
-11.80049	-1.58E-11	279.736398	0.1000064	6.80229E-05	279.736398
-11.60049	-5.7E-12	279.762372	0.100006	6.85828E-05	279.762372
-11.40049	3.81E-11	279.786896	0.100006	6.91405E-05	279.786896
-11.2005	4.53E-11	279.811429	0.1000052	6.9695E-05	279.811429
-11.00049	5.05E-11	279.835943	0.1000056	7.02471E-05	279.835943
-10.8005	6.42E-11	279.860457	0.1000052	7.07974E-05	279.860457
-10.60049	8.57E-11	279.884964	0.1000047	7.13442E-05	279.884964
-10.4005	8.05E-11	279.909484	0.1000067	7.1892E-05	279.909484
-10.20049	8.14E-11	279.933995	0.1000051	7.2435E-05	279.933995
-10.0005	1.201E-10	279.958512	0.1000055	7.2976E-05	279.958512
-9.80049	1.095E-10	279.983133	0.1000054	7.35174E-05	279.983133
-9.6005	9.69E-11	280.00773	0.1000051	7.40532E-05	280.00773
-9.40048	1.246E-10	280.032245	0.1000057	7.45901E-05	280.032245
-9.20049	1.324E-10	280.056811	0.1000065	7.5124E-05	280.056811
-9.00048	1.344E-10	280.081435	0.1000045	7.56501E-05	280.081435
-8.80048	2.428E-10	280.10595	0.1000057	7.61772E-05	280.10595
-8.60049	1.608E-10	280.130477	0.1000055	7.6699E-05	280.130477
-8.4005	1.628E-10	280.154996	0.1000057	7.72192E-05	280.154996
-8.20047	1.579E-10	280.179525	0.1000055	7.77376E-05	280.179525
-8.00049	1.676E-10	280.204042	0.1000059	7.82553E-05	280.204042
-7.80047	1.693E-10	280.228572	0.1000065	7.87693E-05	280.228572
-7.6005	1.324E-10	280.275188	0.1000054	7.92793E-05	280.275188
-7.40048	1.699E-10	280.299729	0.1000058	7.97925E-05	280.299729
-7.20049	1.559E-10	280.324243	0.1000058	8.03025E-05	280.324243
-7.0005	1.761E-10	280.348767	0.100006	8.08105E-05	280.348767
-6.80047	1.868E-10	280.373343	0.1000052	8.13173E-05	280.373343
-6.6005	1.177E-10	280.397926	0.1000057	8.18218E-05	280.397926
-6.40051	1.491E-10	280.422451	0.1000049	8.23231E-05	280.422451
-6.20051	1.917E-10	280.446986	0.1000046	8.28246E-05	280.446986
-6.00047	1.821E-10	280.471496	0.1000049	8.33244E-05	280.471496
-5.80048	1.935E-10	280.496368	0.1000056	8.38216E-05	280.496368
-5.60049	2.008E-10	280.520907	0.1000052	8.43185E-05	280.520907
-5.4005	2.097E-10	280.545427	0.100005	8.48133E-05	280.545427
-5.20051	2.014E-10	280.569967	0.100004	8.5305E-05	280.569967
-5.00049	2.062E-10	280.594466	0.1000051	8.57976E-05	280.594466
-4.8005	2.313E-10	280.618982	0.1000041	8.62878E-05	280.618982
-4.60049	2.194E-10	280.643501	0.1000048	8.67773E-05	280.643501
-4.40052	2.019E-10	280.668023	0.1000043	8.72627E-05	280.668023
-4.2005	2.482E-10	280.692537	0.1000045	8.77491E-05	280.692537
-4.0005	2.45E-10	280.717069	0.1000051	8.8235E-05	280.717069
-3.80049	1.757E-10	280.77682	0.1000044	8.87152E-05	280.77682
-3.6005	2.164E-10	280.801375	0.1000048	8.91988E-05	280.801375
-3.4005	2.365E-10	280.825896	0.1000038	8.96794E-05	280.825896
-3.2005	2.283E-10	280.850431	0.1000041	9.01609E-05	280.850431
-3.0005	2.289E-10	280.87501	0.1000042	9.06411E-05	280.87501
-2.80049	2.589E-10	280.899526	0.1000047	9.11207E-05	280.899526
-2.60051	2.387E-10	280.924046	0.1000045	9.15981E-05	280.924046
-2.40051	2.463E-10	280.948574	0.1000036	9.20742E-05	280.948574
-2.20051	2.597E-10	280.9731	0.1000031	9.25503E-05	280.9731
-2.00051	2.529E-10	280.997872	0.1000039	9.30259E-05	280.997872
-1.80051	2.652E-10	281.02242	0.1000041	9.35036E-05	281.02242
-1.60048	2.451E-10	281.04694	0.100004	9.39823E-05	281.04694
-1.4005	2.718E-10	281.071542	0.1000039	9.44649E-05	281.071542
-1.20051	2.801E-10	281.096063	0.1000043	9.49552E-05	281.096063
-1.00051	2.617E-10	281.12061	0.1000038	9.54511E-05	281.12061
-0.80051	2.902E-10	281.14513	0.1000042	9.59592E-05	281.14513
-0.60048	2.887E-10	281.169679	0.1000041	9.64778E-05	281.169679
-0.40048	2.809E-10	281.194206	0.1000042	9.70036E-05	281.194206
-0.2005	2.921E-10	281.218729	0.1000041	9.75347E-05	281.218729
-0.00051	2.575E-10	281.278325	0.1000034	9.80656E-05	281.278325
0.19949	2.65E-10	281.302872	0.100004	9.86071E-05	281.302872
0.39952	2.586E-10	281.327393	0.1000031	9.91493E-05	281.327393
0.5995	3.066E-10	281.351919	0.1000029	9.9695E-05	281.351919
0.79949	2.991E-10	281.376479	0.1000037	0.000100242	281.376479
0.99949	2.872E-10	281.40104	0.1000035	0.0001007875	281.40104
1.1995	3.083E-10	281.425558	0.1000037	0.0001013371	281.425558
1.39951	3.06E-10	281.450065	0.1000038	0.0001018877	281.450065
1.59951	3.116E-10	281.47458	0.100003	0.0001024395	281.47458
1.79948	3.589E-10	281.499342	0.1000038	0.0001029924	281.499342
1.9995	3.537E-10	281.523866	0.100004	0.0001035495	281.523866
2.1995	3.296E-10	281.548379	0.100004	0.0001041065	281.548379
2.39949	3.244E-10	281.572925	0.1000034	0.0001046614	281.572925
2.5995	3.026E-10	281.602635	0.0999999	0.000105297	281.602635
2.79949	3.191E-10	281.627163	0.0999998	0.000105856	281.627163
2.99949	3.43E-10	281.65168	0.1000001	0.000106414	281.65168
3.1995	3.556E-10	281.676194	0.0999999	0.000106972	281.676194
3.39948	3.393E-10	281.700709	0.0999999	0.000107529	281.700709
3.5995	3.338E-10	281.725237	0.0999999	0.000108088	281.725237
3.79949	2.897E-10	281.782942	0.0999998	0.000108641	281.782942
3.9995	3.211E-10	281.807468	0.1	0.000109198	281.807468
4.19947	2.782E-10	281.831991	0.1	0.000109755	281.831991
4.39949	3.256E-10	281.856518	0.0999997	0.000110308	281.856518
4.5995	3.29E-10	281.88109	0.1	0.00011086	281.88109
4.79949	3.405E-10	281.905621	0.1	0.000111409	281.905621
4.99948	3.494E-10	281.930143	0.1	0.000111955	281.930143
5.1995	3.523E-10	281.954654	0.0999999	0.000112502	281.954654
5.39951	3.45E-10	281.979167	0.1	0.000113042	281.979167
5.5995	3.642E-10	282.004042	0.1000001	0.000113581	282.004042
5.79951	3.608E-10	282.028589	0.1000001	0.000114116	282.028589
5.99949	3.535E-10	282.053099	0.0999999	0.000114649	282.053099
6.19952	3.754E-10	282.077664	0.1	0.00011518	282.077664
6.39949	3.703E-10	282.102177	0.1000001	0.000115704	282.102177
6.59951	3.617E-10	282.126687	0.0999999	0.00011623	282.126687
6.79951	3.718E-10	282.151185	0.1000002	0.000116751	282.151185
6.99949	3.959E-10	282.175699	0.1	0.000117268	282.175699
7.1995	3.807E-10	282.200215	0.0999999	0.000117783	282.200215
7.39947	3.684E-10	282.224734	0.1000001	0.000118295	282.224734
7.5995	3.28E-10	282.281598	0.1	0.0001188	282.281598
7.79949	3.546E-10	282.306142	0.0999999	0.000119308	282.306142
7.99947	3.73E-10	282.330682	0.1	0.000119812	282.330682
8.1995	3.886E-10	282.355202	0.0999999	0.000120314	282.355202
8.3995	3.843E-10	282.379798	0.1000001	0.00012081	282.379798
8.59949	3.903E-10	282.404325	0.0999998	0.000121304	282.404325
8.79949	3.935E-10	282.428839	0.0999999	0.000121799	282.428839
8.99948	3.968E-10	282.453343	0.1	0.000122284	282.453343
9.19948	3.998E-10	282.477868	0.0999997	0.000122772	282.477868
9.39949	4.091E-10	282.502494	0.1	0.000123261	282.502494
9.59949	3.993E-10	282.52705	0.1	0.000123746	282.52705
9.79949	4.07E-10	282.551561	0.1	0.00012423	282.551561
9.99949	4.07E-10	282.576097	0.0999999	0.00012471	282.576097
9.99949	3.628E-10	282.599434	0.1000001	0.000124712	282.599434
9.79952	2.655E-10	282.623969	0.1	0.000124232	282.623969
9.59948	2.106E-10	282.648481	0.1	0.000123752	282.648481
9.39949	2.263E-10	282.673009	0.1000001	0.000123271	282.673009
9.19951	1.9E-10	282.697505	0.1	0.000122783	282.697505
8.9995	1.479E-10	282.722025	0.0999998	0.000122298	282.722025
8.79951	1.792E-10	282.7835	0.0999998	0.000121801	282.7835
8.5995	1.272E-10	282.808025	0.1	0.0001213	282.808025
8.3995	1.167E-10	282.832548	0.0999999	0.000120798	282.832548
8.1995	9.64E-11	282.857058	0.1	0.00012029	282.857058
7.99948	1.017E-10	282.88163	0.1000001	0.000119782	282.88163
7.79949	7.03E-11	282.906145	0.1	0.000119269	282.906145
7.59951	1.383E-10	282.930673	0.1000002	0.000118757	282.930673
7.3995	7.38E-11	282.955174	0.1	0.000118241	282.955174
7.1995	5.83E-11	282.979686	0.1	0.000117722	282.979686
6.99949	4.23E-11	283.004321	0.0999998	0.000117201	283.004321
6.79951	2.16E-11	283.028846	0.1	0.000116677	283.028846
6.59952	3.09E-11	283.053369	0.0999999	0.000116151	283.053369
6.39949	3.17E-11	283.077926	0.1000001	0.000115619	283.077926
6.19952	2.5E-12	283.102467	0.1000001	0.000115088	283.102467
5.9995	-9.6E-12	283.126978	0.1000002	0.000114554	283.126978
5.7995	-1E-13	283.151515	0.1	0.000114014	283.151515
5.59952	-7.8E-12	283.176022	0.1000002	0.000113474	283.176022
5.39949	-1.72E-11	283.200561	0.0999999	0.00011293	283.200561
5.19952	-1.279E-10	283.225076	0.1000001	0.000112381	283.225076
4.99951	4.5E-12	283.284949	0.0999999	0.000111837	283.284949
4.7995	-3.81E-11	283.309477	0.0999999	0.000111285	283.309477
4.59949	-2.24E-11	283.334016	0.0999997	0.000110731	283.334016
4.3995	-4.26E-11	283.358527	0.0999998	0.000110176	283.358527
4.19948	-7.23E-11	283.383103	0.0999998	0.000109618	283.383103
3.99949	-6.69E-11	283.407672	0.0999999	0.000109059	283.407672
3.7995	-5.85E-11	283.432244	0.1	0.0001085	283.432244
3.59952	-7.49E-11	283.456783	0.1000001	0.000107941	283.456783
3.39951	-8.7E-11	283.481297	0.0999998	0.000107377	283.481297
3.19951	-8.72E-11	283.50593	0.0999999	0.000106817	283.50593
2.9995	-9.88E-11	283.530405	0.1000003	0.000106255	283.530405
2.7995	-1.009E-10	283.554936	0.0999999	0.000105694	283.554936
2.5995	-1.041E-10	283.579438	0.0999999	0.000105134	283.579438
2.3995	-1.081E-10	283.603965	0.0999998	0.000104573	283.603965
2.19951	-1.259E-10	283.628496	0.1000002	0.000104014	283.628496
1.9995	-1.198E-10	283.653023	0.0999999	0.000103455	283.653023
1.79951	-9.63E-11	283.677532	0.1000001	0.0001029	283.677532
1.59951	-1.288E-10	283.702064	0.1	0.000102346	283.702064
1.39948	-1.596E-10	283.726581	0.1	0.000101791	283.726581
1.19949	-8.41E-11	283.786676	0.1	0.000101243	283.786676
0.99951	-1.116E-10	283.811226	0.1	0.00010069	283.811226
0.79949	-1.246E-10	283.835846	0.0999999	0.000100141	283.835846
0.59953	-1.398E-10	283.860372	0.0999999	9.9596E-05	283.860372
0.39952	-1.291E-10	283.884937	0.0999999	9.9049E-05	283.884937
0.19952	-1.588E-10	283.909467	0.1	9.8506E-05	283.909467
-0.00048	-1.564E-10	283.933988	0.1	9.7966E-05	283.933988
-0.20048	-1.407E-10	283.958517	0.1000001	9.7429E-05	283.958517
-0.40048	-1.716E-10	283.983037	0.1	9.6898E-05	283.983037
-0.60049	-1.733E-10	284.007842	0.1000001	9.6377E-05	284.007842
-0.80052	-1.71E-10	284.032384	0.0999998	9.5863E-05	284.032384
-1.00049	-1.737E-10	284.056901	0.1000001	9.536E-05	284.056901
-1.20048	-1.78E-10	284.081491	0.1000001	9.4869E-05	284.081491
-1.40049	-2.018E-10	284.106007	0.1000001	9.4385E-05	284.106007
-1.60049	-1.71E-10	284.130543	0.1000001	9.3907E-05	284.130543
-1.8005	-1.897E-10	284.155054	0.1	9.3429E-05	284.155054
-2.00048	-2.133E-10	284.179571	0.0999999	9.2954E-05	284.179571
-2.20049	-1.969E-10	284.204097	0.1000001	9.2479E-05	284.204097
-2.40049	-2.046E-10	284.228629	0.0999999	9.2003E-05	284.228629
-2.60047	-1.693E-10	284.288316	0.0999999	9.153E-05	284.288316
-2.8005	-1.902E-10	284.312854	0.1000001	9.1052E-05	284.312854
-3.00048	1.037E-10	284.337404	0.1	9.0573E-05	284.337404
-3.20048	-2.019E-10	284.361953	0.1000001	9.0095E-05	284.361953
-3.40049	-2.219E-10	284.38651	0.1	8.9615E-05	284.38651
-3.60047	-1.981E-10	284.411095	0.0999999	8.9132E-05	284.411095
-3.80047	-2.055E-10	284.43561	0.1	8.8651E-05	284.43561
-4.00049	-2.204E-10	284.46013	0.1000002	8.8169E-05	284.46013
-4.20046	-2.168E-10	284.487987	0.1000043	8.76053E-05	284.487987
-4.4005	-2.322E-10	284.512578	0.1000052	8.71199E-05	284.512578
-4.60047	-2.106E-10	284.537128	0.100005	8.66341E-05	284.537128
-4.80048	-2.351E-10	284.561656	0.1000047	8.6145E-05	284.561656
-5.0005	-2.567E-10	284.586175	0.1000053	8.56543E-05	284.586175
-5.20051	-2.378E-10	284.610695	0.1000052	8.51622E-05	284.610695
-5.40048	-3.982E-10	284.635382	0.1000047	8.46695E-05	284.635382
-5.6005	-2.899E-10	284.659918	0.1000045	8.41755E-05	284.659918
-5.80049	-2.666E-10	284.684427	0.1000052	8.36784E-05	284.684427
-6.00048	-2.714E-10	284.708964	0.1000049	8.31796E-05	284.708964
-6.2005	-2.528E-10	284.733724	0.1000052	8.2681E-05	284.733724
-6.40047	-2.039E-10	284.792544	0.1000047	8.2181E-05	284.792544
-6.60048	-2.333E-10	284.817066	0.1000047	8.16761E-05	284.817066
-6.80049	-2.659E-10	284.841603	0.1000054	8.11712E-05	284.841603
-7.00049	-2.816E-10	284.866126	0.1000055	8.06628E-05	284.866126
-7.20049	-2.554E-10	284.890715	0.1000045	8.01532E-05	284.890715
-7.40049	-2.672E-10	284.915255	0.100005	7.96414E-05	284.915255
-7.6005	-2.823E-10	284.939774	0.1000045	7.91285E-05	284.939774
-7.80049	-2.809E-10	284.964307	0.1000053	7.86137E-05	284.964307
-8.0005	-2.805E-10	284.988822	0.1000061	7.80964E-05	284.988822
-8.2005	-2.871E-10	285.013688	0.1000044	7.75763E-05	285.013688
-8.40049	-2.98E-10	285.038213	0.1000052	7.70544E-05	285.038213
-8.60049	-2.815E-10	285.062739	0.1000055	7.65304E-05	285.062739
-8.80047	-3.062E-10	285.087333	0.100005	7.60034E-05	285.087333
-9.00047	-3.026E-10	285.111846	0.1000048	7.54761E-05	285.111846
-9.20047	-2.871E-10	285.136455	0.1000062	7.49478E-05	285.136455
-9.40049	-3.027E-10	285.160973	0.100005	7.44136E-05	285.160973
-9.6005	-3.231E-10	285.185504	0.1000045	7.3881E-05	285.185504
-9.80048	-3.123E-10	285.210023	0.1000055	7.33495E-05	285.210023
-10.00046	-2.977E-10	285.234551	0.1000055	7.28134E-05	285.234551
-10.20051	-2.676E-10	285.291477	0.1000049	7.22828E-05	285.291477
-10.40051	-2.799E-10	285.316013	0.1000059	7.1742E-05	285.316013
-10.60049	-2.993E-10	285.340548	0.1000058	7.11993E-05	285.340548
-10.80049	-3.219E-10	285.365072	0.1000062	7.06539E-05	285.365072
-11.00048	-3.074E-10	285.389628	0.1000056	7.0105E-05	285.389628
-11.2005	-3.134E-10	285.41419	0.1000064	6.95555E-05	285.41419
-11.40048	-3.251E-10	285.438703	0.1000066	6.90026E-05	285.438703
-11.60049	-3.337E-10	285.463232	0.1000063	6.84476E-05	285.463232
-11.80048	-3.3E-10	285.48774	0.1000063	6.78898E-05	285.48774
-12.00047	-3.326E-10	285.512412	0.1000058	6.73304E-05	285.512412
#scan	iMeasureCycle=3	iMux=0	time=319.802	N=222	LocalTime=22/06/2023 08:20:11
#VGate(V)	IGate(A)	time(s)	VDrain(V)	IDrain(A)	time(s)
-12.00048	-8.12E-11	319.809726	0.1000064	6.74777E-05	319.809726
-11.80049	-2.43E-11	319.83461	0.1000058	6.80406E-05	319.83461
-11.6005	-1E-12	319.860241	0.100006	6.86003E-05	319.860241
-11.40049	2.16E-11	319.884781	0.1000058	6.9158E-05	319.884781
-11.20051	3.61E-11	319.9093	0.1000048	6.97117E-05	319.9093
-11.00049	4E-11	319.933835	0.1000062	7.02657E-05	319.933835
-10.80049	6.01E-11	319.958355	0.1000058	7.08155E-05	319.958355
-10.60051	7E-11	319.982897	0.100005	7.13632E-05	319.982897
-10.4005	6.69E-11	320.007518	0.1000058	7.19089E-05	320.007518
-10.20048	8.93E-11	320.031979	0.1000057	7.24519E-05	320.031979
-10.00048	9.14E-11	320.056511	0.1000051	7.2992E-05	320.056511
-9.80046	9.02E-11	320.081111	0.1000061	7.3533E-05	320.081111
-9.6005	1.13E-10	320.105635	0.1000056	7.40709E-05	320.105635
-9.4005	1.223E-10	320.130133	0.1000055	7.46073E-05	320.130133
-9.20049	1.176E-10	320.154717	0.1000054	7.51381E-05	320.154717
-9.00049	1.14E-10	320.179192	0.1000058	7.56669E-05	320.179192
-8.80048	1.403E-10	320.203721	0.100005	7.61925E-05	320.203721
-8.60048	1.394E-10	320.228231	0.1000056	7.67149E-05	320.228231
-8.4005	1.396E-10	320.252749	0.1000055	7.72354E-05	320.252749
-8.2005	1.385E-10	320.277274	0.1000052	7.77533E-05	320.277274
-8.00051	1.659E-10	320.301807	0.1000056	7.82703E-05	320.301807
-7.8005	1.559E-10	320.326299	0.1000058	7.87835E-05	320.326299
-7.60049	1.205E-10	320.36929	0.1000047	7.92942E-05	320.36929
-7.40047	1.55E-10	320.393844	0.1000053	7.98061E-05	320.393844
-7.20049	1.557E-10	320.418331	0.1000048	8.03162E-05	320.418331
-7.0005	1.66E-10	320.442836	0.1000046	8.08233E-05	320.442836
-6.80047	1.78E-10	320.467417	0.1000056	8.13313E-05	320.467417
-6.60051	1.78E-10	320.492	0.1000046	8.18345E-05	320.492
-6.4005	1.876E-10	320.516512	0.1000048	8.2337E-05	320.516512
-6.2005	1.779E-10	320.541051	0.1000046	8.28376E-05	320.541051
-6.00051	2.071E-10	320.565671	0.100004	8.3337E-05	320.565671
-5.80051	2.009E-10	320.59022	0.1000045	8.38356E-05	320.59022
-5.60049	1.868E-10	320.614735	0.1000043	8.43312E-05	320.614735
-5.40047	2.09E-10	320.639268	0.1000044	8.48258E-05	320.639268
-5.20049	2.22E-10	320.663782	0.1000047	8.53176E-05	320.663782
-5.00051	2.04E-10	320.688338	0.1000043	8.58092E-05	320.688338
-4.80049	2.091E-10	320.712856	0.1000039	8.62984E-05	320.712856
-4.60046	2.265E-10	320.737388	0.1000046	8.67881E-05	320.737388
-4.4005	2.234E-10	320.761907	0.1000044	8.72755E-05	320.761907
-4.20052	2.204E-10	320.786444	0.1000043	8.77587E-05	320.786444
-4.0005	2.253E-10	320.811017	0.1000039	8.82449E-05	320.811017
-3.8005	1.785E-10	320.859668	0.1000044	8.87248E-05	320.859668
-3.60049	2.077E-10	320.884256	0.1000043	8.92087E-05	320.884256
-3.40049	2.38E-10	320.908839	0.1000042	8.96901E-05	320.908839
-3.20051	2.296E-10	320.933387	0.1000038	9.01702E-05	320.933387
-3.0005	2.127E-10	320.959688	0.1000045	9.06498E-05	320.959688
-2.80049	3.787E-10	320.984215	0.1000046	9.11287E-05	320.984215
-2.60048	2.636E-10	321.008746	0.1000043	9.16054E-05	321.008746
-2.40048	2.596E-10	321.033264	0.1000048	9.20833E-05	321.033264
-2.20048	2.59E-10	321.057838	0.1000043	9.25571E-05	321.057838
-2.0005	2.635E-10	321.082432	0.1000043	9.30348E-05	321.082432
-1.8005	2.737E-10	321.106946	0.1000045	9.35126E-05	321.106946
-1.60049	2.718E-10	321.131453	0.1000046	9.39899E-05	321.131453
-1.4005	2.713E-10	321.156037	0.1000039	9.44718E-05	321.156037
-1.20053	2.852E-10	321.180578	0.1000042	9.49608E-05	321.180578
-1.00051	2.784E-10	321.205105	0.1000045	9.54593E-05	321.205105
-0.80049	2.811E-10	321.229633	0.1000042	9.59662E-05	321.229633
-0.6005	2.88E-10	321.254142	0.1000037	9.64838E-05	321.254142
-0.40048	2.926E-10	321.278683	0.1000049	9.70108E-05	321.278683
-0.20053	1.85E-10	321.303201	0.1000039	9.75384E-05	321.303201
-0.00051	2.746E-10	321.327723	0.1000039	9.80756E-05	321.327723
0.19951	2.565E-10	321.372225	0.1000038	9.86141E-05	321.372225
0.3995	2.855E-10	321.396755	0.1000037	9.91577E-05	321.396755
0.5995	2.85E-10	321.421266	0.1000039	9.97035E-05	321.421266
0.79952	2.845E-10	321.445775	0.1000033	0.000100248	321.445775
0.99951	3.145E-10	321.470342	0.1000035	0.0001007965	321.470342
1.19949	3.127E-10	321.494915	0.1000035	0.0001013456	321.494915
1.3995	3.008E-10	321.519434	0.1000037	0.0001018951	321.519434
1.5995	3.094E-10	321.543951	0.1000036	0.0001024476	321.543951
1.79949	3.3E-10	321.568599	0.1000033	0.0001030022	321.568599
1.99949	3.133E-10	321.593221	0.100003	0.0001035573	321.593221
2.19948	3.084E-10	321.617738	0.1000036	0.0001041138	321.617738
2.3995	3.429E-10	321.642284	0.1000032	0.0001046714	321.642284
2.59952	2.861E-10	321.671833	0.1000001	0.000105307	321.671833
2.7995	3.464E-10	321.696375	0.0999998	0.000105866	321.696375
2.99948	3.335E-10	321.720894	0.1000001	0.000106424	321.720894
3.19951	3.281E-10	321.745398	0.1	0.000106985	321.745398
3.3995	3.484E-10	321.769893	0.1	0.000107542	321.769893
3.59951	3.435E-10	321.794423	0.0999999	0.0001081	321.794423
3.79949	3.421E-10	321.818981	0.1000002	0.000108657	321.818981
3.99947	2.737E-10	321.880934	0.1	0.000109209	321.880934
4.1995	3.37E-10	321.905485	0.0999999	0.000109765	321.905485
4.39949	3.443E-10	321.929998	0.0999999	0.000110321	321.929998
4.59949	3.369E-10	321.954524	0.0999999	0.000110871	321.954524
4.79949	3.455E-10	321.979083	0.0999999	0.00011142	321.979083
4.99949	3.625E-10	322.003702	0.1	0.000111967	322.003702
5.19948	3.593E-10	322.028218	0.0999998	0.000112511	322.028218
5.39949	3.525E-10	322.05276	0.0999999	0.000113054	322.05276
5.5995	3.629E-10	322.077354	0.0999998	0.000113591	322.077354
5.79953	3.768E-10	322.101886	0.1000001	0.000114128	322.101886
5.9995	3.651E-10	322.126399	0.0999999	0.000114663	322.126399
6.1995	2.933E-10	322.150977	0.1	0.000115192	322.150977
6.39949	3.902E-10	322.175493	0.1000001	0.00011572	322.175493
6.59953	3.749E-10	322.200023	0.0999999	0.000116243	322.200023
6.79953	3.772E-10	322.224554	0.1	0.000116764	322.224554
6.99952	3.85E-10	322.249061	0.0999999	0.000117283	322.249061
7.19952	3.851E-10	322.2736	0.0999999	0.000117798	322.2736
7.39953	3.832E-10	322.298108	0.1	0.00011831	322.298108
7.59953	3.82E-10	322.322643	0.0999998	0.000118818	322.322643
7.79954	3.333E-10	322.379868	0.0999999	0.000119318	322.379868
7.99953	3.675E-10	322.404397	0.1	0.000119825	322.404397
8.19952	3.9E-10	322.428932	0.1	0.000120327	322.428932
8.39954	3.851E-10	322.453436	0.0999997	0.000120822	322.453436
8.59951	3.797E-10	322.478075	0.1	0.000121318	322.478075
8.79953	4.062E-10	322.502623	0.1000001	0.000121809	322.502623
8.99951	4.033E-10	322.52715	0.0999999	0.000122299	322.52715
9.19952	4.542E-10	322.551666	0.0999998	0.000122785	322.551666
9.39949	3.922E-10	322.576277	0.1	0.000123276	322.576277
9.5995	4.235E-10	322.600811	0.1000003	0.000123762	322.600811
9.7995	4.109E-10	322.625339	0.0999999	0.000124247	322.625339
9.99949	4.138E-10	322.649851	0.0999999	0.000124727	322.649851
9.9995	3.673E-10	322.673203	0.1000002	0.000124727	322.673203
9.7995	2.787E-10	322.697712	0.1	0.000124246	322.697712
9.59949	2.293E-10	322.722233	0.1	0.000123765	322.722233
9.39951	2.113E-10	322.746734	0.0999999	0.000123284	322.746734
9.1995	1.934E-10	322.771255	0.1000001	0.000122797	322.771255
8.99948	1.591E-10	322.795858	0.0999999	0.00012231	322.795858
8.79951	1.468E-10	322.820451	0.1	0.000121818	322.820451
8.59949	1.747E-10	322.881356	0.0999999	0.000121312	322.881356
8.39951	1.329E-10	322.905891	0.1	0.000120811	322.905891
8.19949	9.21E-11	322.930417	0.1	0.000120307	322.930417
7.9995	1.615E-10	322.954929	0.0999999	0.000119796	322.954929
7.79952	-2.42E-11	322.979517	0.1	0.000119286	322.979517
7.59948	5.52E-11	323.004036	0.1000001	0.000118774	323.004036
7.39951	6.09E-11	323.028577	0.1000002	0.000118257	323.028577
7.1995	5.94E-11	323.053078	0.0999999	0.000117738	323.053078
6.99951	3.42E-11	323.077694	0.1	0.000117215	323.077694
6.79951	2.58E-11	323.102213	0.0999999	0.000116693	323.102213
6.59952	2.82E-11	323.126757	0.1000001	0.000116165	323.126757
6.39952	1.71E-11	323.151328	0.1000001	0.000115637	323.151328
6.19952	6.1E-12	323.175868	0.0999999	0.000115103	323.175868
5.99951	-1.05E-11	323.200468	0.1	0.000114569	323.200468
5.79951	3.2E-12	323.224992	0.1	0.000114031	323.224992
5.59952	-1.56E-11	323.249504	0.0999998	0.000113489	323.249504
5.39949	-3.43E-11	323.274082	0.1000001	0.000112947	323.274082
5.19949	-9.9E-12	323.298621	0.1	0.000112399	323.298621
4.99949	-3.41E-11	323.323143	0.0999999	0.00011185	323.323143
4.79951	1.6E-11	323.401801	0.0999999	0.000111303	323.401801
4.59951	-1.25E-11	323.426346	0.0999998	0.00011075	323.426346
4.39948	-2.16E-11	323.45086	0.0999998	0.000110194	323.45086
4.19951	-5.05E-11	323.47538	0.0999999	0.000109635	323.47538
3.99952	-5.69E-11	323.500041	0.1	0.000109077	323.500041
3.79949	-4.88E-11	323.524581	0.1	0.000108519	323.524581
3.5995	-6.45E-11	323.549109	0.0999998	0.000107957	323.549109
3.39949	-7.65E-11	323.573716	0.0999999	0.000107397	323.573716
3.19948	-7.95E-11	323.598268	0.1000002	0.000106835	323.598268
2.99951	-7.6E-11	323.622883	0.1000001	0.000106274	323.622883
2.7995	-8.96E-11	323.647411	0.0999997	0.000105712	323.647411
2.59951	-1.092E-10	323.671927	0.1	0.00010515	323.671927
2.3995	-8.35E-11	323.696442	0.1	0.00010459	323.696442
2.19951	-1.063E-10	323.720946	0.1	0.000104032	323.720946
1.99952	-1.238E-10	323.745459	0.1	0.000103475	323.745459
1.7995	-1.135E-10	323.76998	0.1000001	0.000102918	323.76998
1.5995	-1.185E-10	323.794498	0.1	0.000102362	323.794498
1.39951	-1.241E-10	323.819075	0.1	0.000101809	323.819075
1.1995	-1.394E-10	323.843768	0.1000001	0.000101256	323.843768
0.9995	-7.33E-11	323.885905	0.1	0.000100711	323.885905
0.7995	-1.316E-10	323.91045	0.1000001	0.000100162	323.91045
0.59952	-1.481E-10	323.93497	0.1	9.9613E-05	323.93497
0.3995	-1.356E-10	323.959503	0.1000001	9.9067E-05	323.959503
0.19953	-1.502E-10	323.984071	0.1000001	9.8526E-05	323.984071
-0.00049	-1.631E-10	324.008667	0.0999999	9.7984E-05	324.008667
-0.20051	-1.557E-10	324.033182	0.0999999	9.7447E-05	324.033182
-0.40051	-1.623E-10	324.057705	0.0999999	9.6916E-05	324.057705
-0.60049	-1.654E-10	324.082304	0.0999999	9.6395E-05	324.082304
-0.80049	-1.839E-10	324.106929	0.0999999	9.5882E-05	324.106929
-1.0005	-1.762E-10	324.131452	0.1000001	9.5383E-05	324.131452
-1.20048	-1.744E-10	324.156038	0.0999999	9.4891E-05	324.156038
-1.4005	-1.934E-10	324.180557	0.1	9.4406E-05	324.180557
-1.6005	-2.025E-10	324.205067	0.1	9.3927E-05	324.205067
-1.8005	-1.758E-10	324.229603	0.0999999	9.3451E-05	324.229603
-2.00049	-2.006E-10	324.254116	0.1	9.2977E-05	324.254116
-2.2005	-2.072E-10	324.278647	0.1	9.2503E-05	324.278647
-2.4005	-2.036E-10	324.303171	0.0999999	9.2026E-05	324.303171
-2.60049	-2.129E-10	324.327703	0.1000001	9.1552E-05	324.327703
-2.80048	-1.464E-10	324.382148	0.0999999	9.1075E-05	324.382148
-3.00048	-1.948E-10	324.406683	0.0999999	9.0595E-05	324.406683
-3.2005	-1.944E-10	324.431251	0.1000001	9.0118E-05	324.431251
-3.4005	-2.019E-10	324.455764	0.1000003	8.9639E-05	324.455764
-3.60049	-1.858E-10	324.483917	0.1000045	8.90779E-05	324.483917
-3.80047	-2.136E-10	324.508441	0.1000047	8.85962E-05	324.508441
-4.00049	-2.271E-10	324.532958	0.1000051	8.81132E-05	324.532958
-4.20047	-3.227E-10	324.557468	0.1000046	8.76301E-05	324.557468
-4.40051	-2.461E-10	324.582079	0.1000048	8.71447E-05	324.582079
-4.60047	-2.505E-10	324.606674	0.1000047	8.66575E-05	324.606674
-4.80049	-2.5E-10	324.631216	0.1000047	8.6169E-05	324.631216
-5.00049	-2.405E-10	324.655796	0.1000047	8.56794E-05	324.655796
-5.20048	-2.452E-10	324.680323	0.1000047	8.51878E-05	324.680323
-5.40049	-2.609E-10	324.704838	0.100005	8.46936E-05	324.704838
-5.60049	-2.705E-10	324.729388	0.1000046	8.42007E-05	324.729388
-5.80048	-2.467E-10	324.75389	0.1000041	8.37046E-05	324.75389
-6.0005	-2.681E-10	324.778429	0.1000052	8.32056E-05	324.778429
-6.2005	-2.773E-10	324.802935	0.1000048	8.27059E-05	324.802935
-6.40051	-2.541E-10	324.827514	0.1000047	8.22034E-05	324.827514
-6.60048	-1.96E-10	324.890836	0.1000052	8.17041E-05	324.890836
-6.8005	-2.467E-10	324.915361	0.1000048	8.11966E-05	324.915361
-7.00049	-2.717E-10	324.939905	0.1000051	8.06906E-05	324.939905
-7.20051	-2.59E-10	324.964414	0.1000054	8.01804E-05	324.964414
-7.40048	-2.665E-10	324.988993	0.1000047	7.9669E-05	324.988993
-7.60048	-2.811E-10	325.013526	0.100006	7.91565E-05	325.013526
-7.80047	-2.826E-10	325.03804	0.1000052	7.86406E-05	325.03804
-8.00047	-2.742E-10	325.062559	0.1000046	7.81225E-05	325.062559
-8.20048	-2.857E-10	325.087154	0.1000055	7.76035E-05	325.087154
-8.40049	-2.941E-10	325.111679	0.1000053	7.70818E-05	325.111679
-8.60048	-2.921E-10	325.136193	0.1000052	7.6558E-05	325.136193
-8.80049	-2.937E-10	325.160773	0.1000053	7.60329E-05	325.160773
-9.00049	-2.991E-10	325.185279	0.1000059	7.55052E-05	325.185279
-9.20047	-3.056E-10	325.209799	0.1000054	7.49753E-05	325.209799
-9.40049	-2.999E-10	325.23428	0.1000056	7.44435E-05	325.23428
-9.60048	-3.095E-10	325.258807	0.1000055	7.39094E-05	325.258807
-9.80048	-3.189E-10	325.28332	0.1000054	7.33775E-05	325.28332
-10.00049	-3.038E-10	325.307849	0.1000057	7.28413E-05	325.307849
-10.20046	-3.148E-10	325.332371	0.1000054	7.23049E-05	325.332371
-10.40048	-2.721E-10	325.390094	0.1000062	7.17717E-05	325.390094
-10.60049	-2.908E-10	325.414629	0.1000063	7.12278E-05	325.414629
-10.8005	-3.039E-10	325.439259	0.1000055	7.06814E-05	325.439259
-11.00048	-3.233E-10	325.463764	0.1000053	7.01334E-05	325.463764
-11.20049	-3.013E-10	325.488351	0.1000054	6.95827E-05	325.488351
-11.40049	-3.202E-10	325.512867	0.1000058	6.90302E-05	325.512867
-11.60048	-3.356E-10	325.537429	0.1000058	6.84748E-05	325.537429
-11.80048	-3.293E-10	325.561947	0.1000061	6.79186E-05	325.561947
-12.00048	-3.274E-10	325.586554	0.1000056	6.73586E-05	325.586554
