#scan	iMeasureCycle=1	iMux=0	time=0.037	N=222	LocalTime=22/06/2023 08:02:51
#VGate(V)	IGate(A)	time(s)	VDrain(V)	IDrain(A)	time(s)
-12.0005	-3.1817E-09	0.060311	0.100007	6.72574E-05	0.060311
-11.80049	-3.0333E-09	0.085186	0.1000069	6.78222E-05	0.085186
-11.60051	-1.3566E-09	0.109738	0.1000058	6.8384E-05	0.109738
-11.40051	-5.609E-10	0.134255	0.100007	6.89425E-05	0.134255
-11.2005	-3.199E-10	0.158799	0.1000071	6.94993E-05	0.158799
-11.0005	-2.394E-10	0.183318	0.1000066	7.00519E-05	0.183318
-10.80048	-2.054E-10	0.207886	0.1000056	7.06022E-05	0.207886
-10.60047	-9.99E-11	0.232415	0.1000069	7.11518E-05	0.232415
-10.40048	-5.23E-11	0.256929	0.1000064	7.16979E-05	0.256929
-10.20051	-5.35E-11	0.281454	0.1000067	7.22436E-05	0.281454
-10.00048	-4.58E-11	0.305965	0.1000062	7.2786E-05	0.305965
-9.80049	-1.64E-11	0.330474	0.1000059	7.33251E-05	0.330474
-9.60051	1.81E-11	0.354995	0.1000071	7.38652E-05	0.354995
-9.40048	2.13E-11	0.379521	0.1000065	7.44013E-05	0.379521
-9.2005	2.61E-11	0.404044	0.1000056	7.49352E-05	0.404044
-9.00049	2.42E-11	0.428558	0.1000062	7.54628E-05	0.428558
-8.8005	5.8E-11	0.453079	0.1000064	7.59892E-05	0.453079
-8.6005	8.45E-11	0.477605	0.1000061	7.65121E-05	0.477605
-8.40049	8.73E-11	0.502129	0.100007	7.70325E-05	0.502129
-8.20049	5.4E-11	0.52671	0.1000056	7.75493E-05	0.52671
-8.0005	9.33E-11	0.551244	0.1000058	7.80677E-05	0.551244
-7.80048	1.153E-10	0.575871	0.1000061	7.85817E-05	0.575871
-7.60051	5.35E-11	0.623669	0.1000058	7.90911E-05	0.623669
-7.40048	8.22E-11	0.648216	0.1000065	7.96042E-05	0.648216
-7.2005	2.339E-10	0.672752	0.1000063	8.01141E-05	0.672752
-7.0005	1.713E-10	0.69729	0.1000059	8.06228E-05	0.69729
-6.80049	1.433E-10	0.721851	0.100006	8.11292E-05	0.721851
-6.60049	1.451E-10	0.746375	0.1000065	8.16339E-05	0.746375
-6.4005	1.559E-10	0.770893	0.1000059	8.21363E-05	0.770893
-6.20049	1.606E-10	0.79541	0.100006	8.26367E-05	0.79541
-6.00049	1.86E-10	0.819915	0.1000061	8.31366E-05	0.819915
-5.80049	1.629E-10	0.844431	0.1000061	8.36341E-05	0.844431
-5.60048	1.391E-10	0.869001	0.1000057	8.41309E-05	0.869001
-5.40049	1.951E-10	0.893521	0.1000055	8.46262E-05	0.893521
-5.20049	1.644E-10	0.918028	0.100006	8.51195E-05	0.918028
-5.00053	1.434E-10	0.942538	0.1000056	8.5612E-05	0.942538
-4.80048	1.495E-10	0.96706	0.100005	8.61026E-05	0.96706
-4.6005	2.035E-10	0.991581	0.1000054	8.65918E-05	0.991581
-4.40051	2.107E-10	1.016095	0.1000049	8.70799E-05	1.016095
-4.20049	2.029E-10	1.040895	0.1000046	8.75663E-05	1.040895
-4.00052	1.961E-10	1.065428	0.1000053	8.80529E-05	1.065428
-3.8005	1.544E-10	1.125364	0.1000055	8.8534E-05	1.125364
-3.60049	1.884E-10	1.149883	0.1000049	8.90189E-05	1.149883
-3.40051	2.169E-10	1.174428	0.1000049	8.95021E-05	1.174428
-3.20052	2.479E-10	1.198997	0.1000046	8.99835E-05	1.198997
-3.0005	2.246E-10	1.223595	0.1000046	9.04644E-05	1.223595
-2.8005	1.891E-10	1.248104	0.1000049	9.09433E-05	1.248104
-2.6005	2.451E-10	1.272638	0.1000055	9.14237E-05	1.272638
-2.40052	2.688E-10	1.297152	0.1000051	9.19004E-05	1.297152
-2.2005	2.392E-10	1.321673	0.1000041	9.23758E-05	1.321673
-2.0005	2.445E-10	1.346181	0.1000049	9.28533E-05	1.346181
-1.80051	2.614E-10	1.370808	0.1000046	9.33295E-05	1.370808
-1.60049	2.63E-10	1.395336	0.1000046	9.38094E-05	1.395336
-1.40051	2.805E-10	1.419883	0.1000048	9.4292E-05	1.419883
-1.2005	2.687E-10	1.444411	0.1000048	9.47845E-05	1.444411
-1.00051	2.477E-10	1.468996	0.1000047	9.52847E-05	1.468996
-0.80051	2.811E-10	1.493517	0.100004	9.5792E-05	1.493517
-0.60048	3.083E-10	1.518048	0.1000041	9.63107E-05	1.518048
-0.40051	2.935E-10	1.542609	0.1000046	9.68382E-05	1.542609
-0.20049	2.741E-10	1.567137	0.1000047	9.73708E-05	1.567137
-0.0005	2.372E-10	1.626553	0.1000042	9.79023E-05	1.626553
0.19951	2.766E-10	1.651078	0.1000051	9.84435E-05	1.651078
0.39952	3.02E-10	1.675599	0.100004	9.89873E-05	1.675599
0.59952	3.064E-10	1.700131	0.100004	9.95325E-05	1.700131
0.79949	2.948E-10	1.724695	0.1000044	0.0001000806	1.724695
0.99948	2.877E-10	1.749231	0.1000043	0.000100628	1.749231
1.19952	3.077E-10	1.773735	0.1000039	0.0001011777	1.773735
1.3995	3.419E-10	1.798274	0.1000038	0.0001017293	1.798274
1.59951	3.324E-10	1.822781	0.1000034	0.0001022805	1.822781
1.79949	3.028E-10	1.847317	0.1000041	0.0001028367	1.847317
1.9995	3.174E-10	1.871872	0.1000042	0.0001033929	1.871872
2.19948	3.556E-10	1.896393	0.1000039	0.0001039515	1.896393
2.39948	3.392E-10	1.920913	0.1000045	0.0001045093	1.920913
2.59952	3.139E-10	1.95051	0.1000002	0.000105141	1.95051
2.79949	3.446E-10	1.975022	0.0999999	0.000105701	1.975022
2.99948	3.637E-10	1.999542	0.0999999	0.000106259	1.999542
3.1995	3.474E-10	2.024049	0.1000001	0.000106817	2.024049
3.39948	3.272E-10	2.048636	0.0999998	0.000107376	2.048636
3.5995	3.548E-10	2.07317	0.0999998	0.000107936	2.07317
3.79949	3.015E-10	2.131093	0.0999998	0.000108489	2.131093
3.99948	3.545E-10	2.155621	0.0999999	0.000109049	2.155621
4.19949	3.759E-10	2.180144	0.1	0.000109603	2.180144
4.39947	3.554E-10	2.204741	0.1	0.00011016	2.204741
4.5995	3.436E-10	2.229296	0.1	0.00011071	2.229296
4.79948	3.677E-10	2.253822	0.1	0.000111259	2.253822
4.99949	4.044E-10	2.278344	0.1	0.000111807	2.278344
5.19949	3.792E-10	2.302861	0.0999999	0.000112352	2.302861
5.39949	2.067E-10	2.327385	0.1000002	0.000112895	2.327385
5.59951	3.485E-10	2.351903	0.1000001	0.000113434	2.351903
5.79949	3.902E-10	2.376411	0.1	0.000113968	2.376411
5.99951	3.961E-10	2.400931	0.1000001	0.000114502	2.400931
6.19948	3.641E-10	2.425441	0.0999999	0.000115032	2.425441
6.3995	3.512E-10	2.44996	0.0999999	0.000115559	2.44996
6.59949	4.098E-10	2.474476	0.1	0.000116086	2.474476
6.79949	4.2E-10	2.498987	0.1	0.000116607	2.498987
6.99947	3.809E-10	2.523505	0.1000001	0.000117124	2.523505
7.19948	3.935E-10	2.548082	0.1000002	0.000117639	2.548082
7.39947	4.043E-10	2.572587	0.1	0.000118151	2.572587
7.59949	3.294E-10	2.630189	0.1	0.000118655	2.630189
7.7995	3.937E-10	2.654711	0.1	0.000119161	2.654711
7.99946	4.177E-10	2.679246	0.1000001	0.000119666	2.679246
8.19949	3.889E-10	2.703761	0.0999999	0.000120166	2.703761
8.39948	3.827E-10	2.728338	0.1000001	0.000120665	2.728338
8.59949	4.125E-10	2.752853	0.0999999	0.00012116	2.752853
8.79951	4.125E-10	2.777368	0.1	0.000121652	2.777368
8.99948	4.312E-10	2.801876	0.0999999	0.000122141	2.801876
9.19951	4.103E-10	2.826376	0.0999999	0.000122629	2.826376
9.39949	3.848E-10	2.850884	0.1	0.000123119	2.850884
9.59949	4.345E-10	2.875468	0.1000001	0.000123604	2.875468
9.79952	4.658E-10	2.899985	0.0999999	0.000124086	2.899985
9.99949	4.197E-10	2.924501	0.1	0.000124567	2.924501
9.99951	3.721E-10	2.947846	0.1	0.000124566	2.947846
9.79948	2.951E-10	2.972384	0.0999999	0.000124086	2.972384
9.59949	2.578E-10	2.996892	0.1000001	0.000123606	2.996892
9.39949	2.34E-10	3.021424	0.0999998	0.000123121	3.021424
9.19948	1.934E-10	3.04631	0.0999998	0.000122636	3.04631
8.9995	1.555E-10	3.070826	0.0999999	0.000122147	3.070826
8.79951	1.679E-10	3.131629	0.1	0.000121653	3.131629
8.59951	1.521E-10	3.156152	0.1	0.000121151	3.156152
8.39951	1.622E-10	3.180695	0.1000003	0.000120649	3.180695
8.19949	1.071E-10	3.205259	0.0999998	0.000120141	3.205259
7.99949	6.35E-11	3.229822	0.1	0.000119629	3.229822
7.79951	9.5E-11	3.254334	0.0999999	0.000119119	3.254334
7.5995	1.124E-10	3.278856	0.1	0.000118604	3.278856
7.39949	5.94E-11	3.303381	0.0999999	0.000118087	3.303381
7.1995	4.35E-11	3.327891	0.1	0.000117569	3.327891
6.9995	4.99E-11	3.352398	0.1	0.000117047	3.352398
6.7995	4.36E-11	3.376995	0.1000001	0.000116521	3.376995
6.5995	4.36E-11	3.401588	0.1	0.000115991	3.401588
6.39948	1.97E-11	3.426109	0.1	0.00011546	3.426109
6.1995	-2.36E-11	3.450632	0.1000001	0.000114927	3.450632
5.99949	4.1E-12	3.475141	0.0999999	0.000114391	3.475141
5.7995	1.478E-10	3.499691	0.1	0.000113852	3.499691
5.59949	3E-12	3.524195	0.0999998	0.000113312	3.524195
5.39951	-2.57E-11	3.548766	0.0999999	0.000112768	3.548766
5.19951	-2.07E-11	3.573285	0.1000001	0.000112219	3.573285
4.9995	3.46E-11	3.63335	0.1000001	0.000111674	3.63335
4.79951	-1.173E-10	3.657895	0.1	0.00011112	3.657895
4.5995	-3.54E-11	3.682415	0.1	0.000110566	3.682415
4.39951	-4.82E-11	3.706972	0.1	0.00011001	3.706972
4.19951	-6.93E-11	3.731541	0.1000002	0.000109448	3.731541
3.99949	-5.83E-11	3.756074	0.1	0.000108891	3.756074
3.7995	-3.75E-11	3.780579	0.0999997	0.000108331	3.780579
3.59952	-6.06E-11	3.805107	0.1	0.000107768	3.805107
3.39949	-1.103E-10	3.829622	0.1	0.000107205	3.829622
3.1995	-9.37E-11	3.854144	0.1000001	0.000106642	3.854144
2.9995	-6.56E-11	3.878738	0.1	0.000106079	3.878738
2.79951	-9.04E-11	3.903281	0.0999999	0.000105515	3.903281
2.5995	-1.213E-10	3.927795	0.1000002	0.000104953	3.927795
2.39951	-1.182E-10	3.952332	0.0999999	0.000104393	3.952332
2.19953	-9.4E-11	3.976839	0.1	0.000103832	3.976839
1.99949	-8.63E-11	4.001372	0.1	0.000103274	4.001372
1.79949	-1.36E-10	4.025889	0.0999999	0.000102714	4.025889
1.5995	-1.489E-10	4.050496	0.1000001	0.000102158	4.050496
1.39951	-1.135E-10	4.075023	0.1000001	0.000101602	4.075023
1.19949	-1.069E-10	4.130872	0.1000001	0.000101053	4.130872
0.99951	-1.161E-10	4.155412	0.1	0.000100502	4.155412
0.79949	-1.077E-10	4.179933	0.1	9.9952E-05	4.179933
0.59951	-1.344E-10	4.20454	0.0999998	9.9401E-05	4.20454
0.3995	-1.583E-10	4.229107	0.1000001	9.8855E-05	4.229107
0.19949	-1.614E-10	4.253643	0.0999999	9.8311E-05	4.253643
-0.00051	-1.454E-10	4.278148	0.1	9.777E-05	4.278148
-0.20048	-1.4E-10	4.302764	0.1	9.7232E-05	4.302764
-0.40048	-1.813E-10	4.327288	0.1	9.67E-05	4.327288
-0.60049	-2.097E-10	4.35189	0.1000001	9.6175E-05	4.35189
-0.80048	-1.653E-10	4.376399	0.0999997	9.5661E-05	4.376399
-1.00049	-1.459E-10	4.400955	0.1000001	9.516E-05	4.400955
-1.20051	-1.951E-10	4.425493	0.1000002	9.4668E-05	4.425493
-1.40049	-2.242E-10	4.450007	0.0999999	9.4181E-05	4.450007
-1.60049	-1.82E-10	4.474546	0.0999998	9.3701E-05	4.474546
-1.80047	-1.938E-10	4.499069	0.0999999	9.3226E-05	4.499069
-2.00048	-2.116E-10	4.523603	0.0999999	9.275E-05	4.523603
-2.20049	-2.093E-10	4.548257	0.1000001	9.2273E-05	4.548257
-2.40051	-2.295E-10	4.572809	0.0999999	9.1797E-05	4.572809
-2.60047	-1.503E-10	4.634733	0.1	9.1319E-05	4.634733
-2.8005	-1.951E-10	4.659295	0.1000001	9.0842E-05	4.659295
-3.0005	-1.899E-10	4.683843	0.1000002	9.0363E-05	4.683843
-3.20049	-2.25E-10	4.70837	0.1	8.9882E-05	4.70837
-3.40048	-2.3E-10	4.732961	0.0999999	8.9402E-05	4.732961
-3.6005	-2.144E-10	4.757483	0.1	8.8918E-05	4.757483
-3.80048	-1.937E-10	4.782004	0.1000001	8.8434E-05	4.782004
-4.00049	-2.388E-10	4.806517	0.1	8.795E-05	4.806517
-4.2005	-2.744E-10	4.831052	0.1	8.7463E-05	4.831052
-4.40049	-2.322E-10	4.855571	0.0999999	8.6977E-05	4.855571
-4.60047	-2.123E-10	4.883519	0.1000046	8.64127E-05	4.883519
-4.80047	-8.93E-11	4.908061	0.1000058	8.59228E-05	4.908061
-5.0005	-2.579E-10	4.93258	0.1000049	8.54313E-05	4.93258
-5.20051	-2.374E-10	4.957101	0.1000059	8.49394E-05	4.957101
-5.4005	-2.231E-10	4.981603	0.1000059	8.44448E-05	4.981603
-5.60049	-2.542E-10	5.006213	0.1000059	8.39485E-05	5.006213
-5.80049	-2.923E-10	5.030728	0.1000059	8.34503E-05	5.030728
-6.00048	-2.611E-10	5.055337	0.1000059	8.29515E-05	5.055337
-6.20051	-2.515E-10	5.079861	0.1000058	8.24493E-05	5.079861
-6.40046	-1.922E-10	5.140939	0.1000058	8.19492E-05	5.140939
-6.60048	-2.714E-10	5.165481	0.1000059	8.14428E-05	5.165481
-6.80046	-2.739E-10	5.19	0.1000052	8.09369E-05	5.19
-7.00049	-2.758E-10	5.214611	0.1000055	8.04285E-05	5.214611
-7.20048	-2.816E-10	5.239169	0.1000056	7.99172E-05	5.239169
-7.40048	-2.672E-10	5.263704	0.1000065	7.94058E-05	5.263704
-7.60048	-2.852E-10	5.288228	0.1000062	7.88918E-05	5.288228
-7.80049	-3.272E-10	5.312746	0.1000057	7.83744E-05	5.312746
-8.00048	-2.856E-10	5.337272	0.100006	7.78556E-05	5.337272
-8.20046	-2.612E-10	5.361796	0.1000055	7.7335E-05	5.361796
-8.40049	-3.077E-10	5.386316	0.1000062	7.68126E-05	5.386316
-8.60051	-3.35E-10	5.410888	0.1000061	7.62855E-05	5.410888
-8.80047	-2.996E-10	5.435404	0.1000063	7.57592E-05	5.435404
-9.00048	-2.894E-10	5.459968	0.1000065	7.52308E-05	5.459968
-9.20048	-3.199E-10	5.484508	0.1000055	7.47E-05	5.484508
-9.40048	-3.337E-10	5.509014	0.1000058	7.41657E-05	5.509014
-9.6005	-3.159E-10	5.533542	0.1000061	7.36316E-05	5.533542
-9.80049	-3.18E-10	5.558099	0.1000055	7.30972E-05	5.558099
-10.00048	-3.081E-10	5.582717	0.1000063	7.25593E-05	5.582717
-10.20048	-2.638E-10	5.639926	0.100007	7.20283E-05	5.639926
-10.40049	-3.058E-10	5.66444	0.1000069	7.14865E-05	5.66444
-10.6005	-3.172E-10	5.688967	0.1000063	7.09417E-05	5.688967
-10.80049	-3.441E-10	5.713475	0.1000072	7.03956E-05	5.713475
-11.00046	-3.248E-10	5.738047	0.1000068	6.98469E-05	5.738047
-11.20047	-3.112E-10	5.762561	0.1000063	6.9295E-05	5.762561
-11.40048	-3.315E-10	5.787092	0.1000069	6.87412E-05	5.787092
-11.6005	-3.647E-10	5.811604	0.1000068	6.81842E-05	5.811604
-11.80049	-3.501E-10	5.836151	0.1000067	6.76268E-05	5.836151
-12.00048	-3.116E-10	5.860646	0.1000067	6.7066E-05	5.860646
#scan	iMeasureCycle=2	iMux=0	time=279.743	N=222	LocalTime=22/06/2023 08:07:31
#VGate(V)	IGate(A)	time(s)	VDrain(V)	IDrain(A)	time(s)
-12.00048	-7.51E-11	279.750484	0.1000064	6.71039E-05	279.750484
-11.80052	-1.93E-11	279.775364	0.1000068	6.76679E-05	279.775364
-11.60051	1.2E-11	279.801322	0.1000072	6.8228E-05	279.801322
-11.4005	3.81E-11	279.825843	0.1000069	6.87882E-05	279.825843
-11.20051	3.35E-11	279.850363	0.1000068	6.93446E-05	279.850363
-11.0005	5.17E-11	279.874876	0.1000065	6.98979E-05	279.874876
-10.80049	6.46E-11	279.899399	0.1000068	7.04502E-05	279.899399
-10.60048	7.91E-11	279.923912	0.1000065	7.09987E-05	279.923912
-10.40047	9.33E-11	279.948432	0.100006	7.15466E-05	279.948432
-10.20049	9.32E-11	279.972938	0.1000068	7.20907E-05	279.972938
-10.00048	8.6E-11	279.997653	0.1000059	7.26346E-05	279.997653
-9.80049	1.045E-10	280.022275	0.1000053	7.31756E-05	280.022275
-9.6005	1.206E-10	280.046791	0.1000055	7.37132E-05	280.046791
-9.40049	1.288E-10	280.071334	0.1000062	7.42524E-05	280.071334
-9.20049	1.186E-10	280.095853	0.1000061	7.47865E-05	280.095853
-9.00049	1.147E-10	280.120414	0.1000055	7.53152E-05	280.120414
-8.80048	1.572E-10	280.144924	0.1000054	7.58413E-05	280.144924
-8.60049	1.534E-10	280.169457	0.1000055	7.63664E-05	280.169457
-8.40048	1.375E-10	280.193966	0.1000058	7.68877E-05	280.193966
-8.20048	1.333E-10	280.218491	0.100006	7.7408E-05	280.218491
-8.00048	1.705E-10	280.242999	0.1000058	7.79258E-05	280.242999
-7.80049	1.831E-10	280.26752	0.1000054	7.84415E-05	280.26752
-7.60049	1.123E-10	280.314271	0.1000058	7.89532E-05	280.314271
-7.4005	1.355E-10	280.338848	0.100006	7.94667E-05	280.338848
-7.20048	1.661E-10	280.363362	0.1000049	7.99778E-05	280.363362
-7.00051	2.01E-10	280.387878	0.1000058	8.04877E-05	280.387878
-6.80048	1.686E-10	280.412431	0.1000061	8.09959E-05	280.412431
-6.6005	1.552E-10	280.436956	0.1000051	8.15008E-05	280.436956
-6.4005	2.017E-10	280.461466	0.1000062	8.20059E-05	280.461466
-6.20049	1.968E-10	280.48597	0.1000057	8.25087E-05	280.48597
-6.0005	1.89E-10	280.510662	0.1000057	8.3009E-05	280.510662
-5.80049	2.001E-10	280.535177	0.1000054	8.35089E-05	280.535177
-5.60049	1.961E-10	280.559704	0.1000056	8.40061E-05	280.559704
-5.4005	3.107E-10	280.584224	0.1000055	8.45014E-05	280.584224
-5.2005	2.441E-10	280.608757	0.1000059	8.4997E-05	280.608757
-5.00052	2.266E-10	280.633264	0.100006	8.54902E-05	280.633264
-4.80048	2.144E-10	280.657802	0.1000056	8.59821E-05	280.657802
-4.60047	2.218E-10	280.682368	0.1000048	8.64724E-05	280.682368
-4.40051	2.467E-10	280.706933	0.1000045	8.69584E-05	280.706933
-4.2005	2.462E-10	280.731467	0.1000055	8.74471E-05	280.731467
-4.0005	2.333E-10	280.756005	0.1000058	8.79338E-05	280.756005
-3.80051	1.815E-10	280.815795	0.1000053	8.8416E-05	280.815795
-3.60049	2.133E-10	280.840315	0.1000055	8.89009E-05	280.840315
-3.40051	2.347E-10	280.864834	0.1000049	8.93834E-05	280.864834
-3.20051	2.409E-10	280.889342	0.1000051	8.98656E-05	280.889342
-3.0005	2.417E-10	280.913919	0.1000054	9.03466E-05	280.913919
-2.80049	2.344E-10	280.938448	0.100005	9.08271E-05	280.938448
-2.60049	2.525E-10	280.962959	0.1000055	9.13059E-05	280.962959
-2.4005	2.761E-10	280.987471	0.1000051	9.17851E-05	280.987471
-2.20052	2.567E-10	281.012158	0.1000057	9.22632E-05	281.012158
-2.0005	8.08E-11	281.036669	0.1000052	9.27389E-05	281.036669
-1.80053	2.439E-10	281.061196	0.1000041	9.32161E-05	281.061196
-1.6005	2.786E-10	281.085718	0.1000042	9.36957E-05	281.085718
-1.4005	2.705E-10	281.110252	0.1000043	9.41794E-05	281.110252
-1.2005	2.575E-10	281.134782	0.1000048	9.467E-05	281.134782
-1.00052	2.655E-10	281.159311	0.1000036	9.51688E-05	281.159311
-0.80051	2.866E-10	281.183856	0.1000039	9.5678E-05	281.183856
-0.60049	2.902E-10	281.208387	0.1000043	9.61964E-05	281.208387
-0.40051	2.749E-10	281.232917	0.1000044	9.67233E-05	281.232917
-0.20052	2.867E-10	281.257461	0.1000043	9.72564E-05	281.257461
-0.00051	2.157E-10	281.317268	0.1000055	9.77911E-05	281.317268
0.19948	2.605E-10	281.341836	0.1000034	9.8333E-05	281.341836
0.3995	2.921E-10	281.36636	0.1000047	9.88771E-05	281.36636
0.59951	2.949E-10	281.390877	0.1000047	9.94253E-05	281.390877
0.79948	2.865E-10	281.415435	0.1000041	9.99717E-05	281.415435
0.9995	2.846E-10	281.439971	0.1000041	0.0001005206	281.439971
1.19948	3.141E-10	281.464486	0.1000044	0.0001010723	281.464486
1.39951	3.2E-10	281.489004	0.1000036	0.0001016226	281.489004
1.5995	3.012E-10	281.513616	0.100004	0.000102177	281.513616
1.79949	3.125E-10	281.538133	0.1000035	0.0001027312	281.538133
1.9995	3.163E-10	281.562663	0.1000038	0.0001032878	281.562663
2.19949	3.272E-10	281.587174	0.1000036	0.0001038468	281.587174
2.39948	3.337E-10	281.611711	0.1000044	0.0001044073	281.611711
2.59951	2.8E-10	281.641268	0.1	0.000105038	281.641268
2.79949	3.451E-10	281.665915	0.0999998	0.000105598	281.665915
2.99948	3.428E-10	281.69043	0.0999999	0.00010616	281.69043
3.1995	3.193E-10	281.714977	0.1000002	0.00010672	281.714977
3.39951	3.132E-10	281.739493	0.1	0.00010728	281.739493
3.59951	3.528E-10	281.764095	0.1	0.000107839	281.764095
3.79948	2.756E-10	281.821732	0.0999998	0.000108393	281.821732
3.99948	3.412E-10	281.846276	0.0999999	0.000108953	281.846276
4.1995	3.389E-10	281.870783	0.1000001	0.000109511	281.870783
4.39948	3.186E-10	281.89531	0.0999999	0.000110066	281.89531
4.5995	3.341E-10	281.919884	0.1000001	0.000110619	281.919884
4.79948	3.636E-10	281.944413	0.1	0.000111172	281.944413
4.99949	3.601E-10	281.968922	0.0999999	0.000111718	281.968922
5.19948	4.85E-10	281.993443	0.1000001	0.000112264	281.993443
5.39948	3.687E-10	282.018027	0.0999999	0.000112809	282.018027
5.59948	3.706E-10	282.042554	0.0999999	0.000113349	282.042554
5.7995	3.811E-10	282.067058	0.1	0.000113886	282.067058
5.99949	3.833E-10	282.091587	0.1000001	0.00011442	282.091587
6.1995	3.786E-10	282.116105	0.1	0.000114953	282.116105
6.39951	3.674E-10	282.140629	0.1000003	0.000115481	282.140629
6.59951	3.827E-10	282.165145	0.1000001	0.000116004	282.165145
6.7995	4.099E-10	282.18966	0.0999999	0.000116527	282.18966
6.99949	3.849E-10	282.214164	0.1	0.000117048	282.214164
7.1995	3.618E-10	282.238682	0.1000001	0.000117564	282.238682
7.39949	4.062E-10	282.263193	0.0999999	0.000118079	282.263193
7.59949	3.389E-10	282.320827	0.0999999	0.000118584	282.320827
7.7995	3.782E-10	282.345393	0.1000001	0.000119092	282.345393
7.99949	3.962E-10	282.369901	0.1000002	0.000119596	282.369901
8.19948	2.502E-10	282.394419	0.1	0.000120098	282.394419
8.39951	3.458E-10	282.418989	0.1	0.000120596	282.418989
8.59947	3.985E-10	282.443515	0.1000001	0.000121092	282.443515
8.79949	4.116E-10	282.468036	0.0999998	0.000121587	282.468036
8.9995	3.824E-10	282.492556	0.1	0.000122076	282.492556
9.1995	4.007E-10	282.517146	0.0999999	0.000122564	282.517146
9.39948	4.1E-10	282.541683	0.0999999	0.000123055	282.541683
9.59949	4.017E-10	282.566199	0.1	0.000123542	282.566199
9.7995	4.177E-10	282.590727	0.0999999	0.000124027	282.590727
9.99948	4.167E-10	282.615227	0.0999999	0.000124507	282.615227
9.99948	3.333E-10	282.638587	0.0999999	0.000124508	282.638587
9.79949	2.738E-10	282.663096	0.0999999	0.000124029	282.663096
9.5995	2.538E-10	282.687655	0.0999998	0.000123547	282.687655
9.3995	2.066E-10	282.712171	0.0999999	0.000123065	282.712171
9.19948	1.726E-10	282.736797	0.1	0.000122575	282.736797
8.9995	1.526E-10	282.761312	0.0999999	0.000122089	282.761312
8.7995	1.562E-10	282.817849	0.1	0.000121594	282.817849
8.59951	1.416E-10	282.842393	0.1	0.000121092	282.842393
8.39949	1.288E-10	282.866894	0.0999999	0.000120587	282.866894
8.19947	9.83E-11	282.891406	0.0999999	0.000120082	282.891406
7.99949	8.36E-11	282.916001	0.1000001	0.00011957	282.916001
7.79948	7.45E-11	282.940527	0.0999999	0.000119056	282.940527
7.5995	6.57E-11	282.965064	0.0999999	0.00011854	282.965064
7.3995	7.4E-11	282.98957	0.1000001	0.000118021	282.98957
7.19949	5E-11	283.014167	0.0999999	0.000117502	283.014167
6.99947	1.11E-11	283.038682	0.0999999	0.00011698	283.038682
6.79951	3.33E-11	283.063212	0.0999997	0.000116455	283.063212
6.59949	3.2E-11	283.087719	0.0999999	0.000115925	283.087719
6.39951	2.91E-11	283.112257	0.0999999	0.000115394	283.112257
6.19951	-5E-13	283.136729	0.1000001	0.000114861	283.136729
5.99949	-1.55E-11	283.161263	0.1	0.000114323	283.161263
5.7995	1.56E-11	283.185785	0.1	0.000113785	283.185785
5.59951	3.7E-12	283.210316	0.0999999	0.000113242	283.210316
5.39949	-3.72E-11	283.234819	0.0999999	0.000112698	283.234819
5.1995	-4.24E-11	283.259349	0.1000001	0.000112148	283.259349
4.9995	1.94E-11	283.307814	0.1000002	0.000111602	283.307814
4.79948	-2.64E-11	283.33242	0.0999999	0.000111048	283.33242
4.5995	-3.48E-11	283.357079	0.1000001	0.000110494	283.357079
4.39949	-4.5E-11	283.381628	0.0999999	0.000109938	283.381628
4.19949	8.65E-11	283.407821	0.1000001	0.000109379	283.407821
3.9995	-4.86E-11	283.432346	0.0999999	0.000108818	283.432346
3.79948	-4.54E-11	283.456896	0.0999999	0.000108256	283.456896
3.59951	-7.08E-11	283.481402	0.1000001	0.000107694	283.481402
3.39949	-7.36E-11	283.505897	0.1	0.000107131	283.505897
3.19951	-6.15E-11	283.530444	0.1000002	0.000106568	283.530444
2.9995	-8.53E-11	283.554972	0.0999999	0.000106003	283.554972
2.79951	-1.076E-10	283.579488	0.0999999	0.00010544	283.579488
2.59951	-9.43E-11	283.604008	0.0999998	0.000104877	283.604008
2.3995	-7.85E-11	283.628527	0.0999999	0.000104318	283.628527
2.19951	-1.039E-10	283.653051	0.1000001	0.000103757	283.653051
1.99949	-1.219E-10	283.677609	0.0999999	0.000103195	283.677609
1.79949	-1.205E-10	283.702141	0.0999999	0.000102639	283.702141
1.59952	-1.086E-10	283.726642	0.1	0.000102082	283.726642
1.3995	-1.175E-10	283.751175	0.1	0.000101528	283.751175
1.19952	-1.37E-10	283.775687	0.1000001	0.000100975	283.775687
0.9995	-1.415E-10	283.821125	0.0999999	0.000100424	283.821125
0.7995	-1.099E-10	283.84566	0.1	9.9874E-05	283.84566
0.59954	-1.304E-10	283.87027	0.1000001	9.9328E-05	283.87027
0.39952	-1.586E-10	283.894785	0.0999999	9.8777E-05	283.894785
0.1995	-1.648E-10	283.919371	0.0999998	9.8232E-05	283.919371
-0.00052	-1.562E-10	283.943892	0.1	9.7692E-05	283.943892
-0.20051	-1.549E-10	283.968413	0.1	9.7154E-05	283.968413
-0.40049	-1.664E-10	283.99293	0.1	9.662E-05	283.99293
-0.6005	-1.654E-10	284.017711	0.1000001	9.6097E-05	284.017711
-0.8005	-1.783E-10	284.042257	0.0999999	9.5583E-05	284.042257
-1.00049	-1.809E-10	284.066779	0.1	9.5081E-05	284.066779
-1.20049	-1.678E-10	284.091305	0.0999999	9.4587E-05	284.091305
-1.40052	-1.819E-10	284.115809	0.1	9.4104E-05	284.115809
-1.60049	-2.139E-10	284.140345	0.1000001	9.3623E-05	284.140345
-1.8005	-2E-10	284.164868	0.0999999	9.3144E-05	284.164868
-2.00049	-1.684E-10	284.189412	0.0999999	9.2669E-05	284.189412
-2.20047	-2.11E-10	284.213925	0.1000001	9.2193E-05	284.213925
-2.40049	-2.268E-10	284.23848	0.1	9.1717E-05	284.23848
-2.60048	-2.058E-10	284.262997	0.1	9.1239E-05	284.262997
-2.80049	-1.278E-10	284.325063	0.0999998	9.0764E-05	284.325063
-3.00049	-1.695E-10	284.349663	0.1000001	9.0283E-05	284.349663
-3.20049	-2.081E-10	284.374223	0.0999998	8.9803E-05	284.374223
-3.40051	-2.071E-10	284.398776	0.1000001	8.9321E-05	284.398776
-3.60048	-2.114E-10	284.423345	0.0999999	8.8837E-05	284.423345
-3.80048	-1.792E-10	284.451303	0.1000053	8.82768E-05	284.451303
-4.00049	-2.268E-10	284.475835	0.1000051	8.77928E-05	284.475835
-4.20048	-2.566E-10	284.500346	0.1000045	8.73067E-05	284.500346
-4.40049	-2.162E-10	284.52495	0.1000047	8.68202E-05	284.52495
-4.60048	-2.204E-10	284.549478	0.1000051	8.63325E-05	284.549478
-4.80049	-2.478E-10	284.573989	0.1000051	8.58406E-05	284.573989
-5.00048	-2.456E-10	284.5985	0.100005	8.53501E-05	284.5985
-5.20049	-2.43E-10	284.623017	0.1000059	8.48568E-05	284.623017
-5.4005	-2.475E-10	284.647549	0.1000056	8.43631E-05	284.647549
-5.6005	-2.543E-10	284.672034	0.1000053	8.38674E-05	284.672034
-5.80047	-2.554E-10	284.696563	0.1000048	8.33687E-05	284.696563
-6.00049	-2.729E-10	284.72109	0.1000056	8.28706E-05	284.72109
-6.20051	-2.65E-10	284.745617	0.1000052	8.23686E-05	284.745617
-6.40048	-2.448E-10	284.770142	0.1000056	8.18653E-05	284.770142
-6.60048	-1.702E-10	284.831637	0.1000052	8.13625E-05	284.831637
-6.80048	-2.368E-10	284.856179	0.1000058	8.08557E-05	284.856179
-7.00047	-2.693E-10	284.880711	0.1000065	8.03476E-05	284.880711
-7.20049	-2.388E-10	284.905235	0.1000058	7.98365E-05	284.905235
-7.40048	-2.392E-10	284.929812	0.1000061	7.93249E-05	284.929812
-7.6005	-2.78E-10	284.954368	0.100006	7.88086E-05	284.954368
-7.80048	-2.85E-10	284.978892	0.1000067	7.82926E-05	284.978892
-8.00049	-2.685E-10	285.003473	0.1000048	7.77725E-05	285.003473
-8.20049	-2.828E-10	285.028065	0.1000062	7.72528E-05	285.028065
-8.40048	-2.836E-10	285.05259	0.1000064	7.67297E-05	285.05259
-8.6005	-2.863E-10	285.077114	0.1000061	7.62044E-05	285.077114
-8.80047	-3.015E-10	285.101626	0.1000059	7.56766E-05	285.101626
-9.00046	-2.953E-10	285.12615	0.100006	7.51467E-05	285.12615
-9.20048	-2.881E-10	285.150671	0.1000072	7.46177E-05	285.150671
-9.40048	-2.98E-10	285.175205	0.1000069	7.40826E-05	285.175205
-9.6005	-5.292E-10	285.199717	0.1000056	7.35475E-05	285.199717
-9.80048	-3.42E-10	285.224249	0.100005	7.30137E-05	285.224249
-10.00049	-2.981E-10	285.248767	0.100006	7.24751E-05	285.248767
-10.2005	-3.211E-10	285.27331	0.1000061	7.19376E-05	285.27331
-10.4005	-2.455E-10	285.330206	0.1000058	7.14024E-05	285.330206
-10.60048	-3.109E-10	285.354851	0.1000064	7.08578E-05	285.354851
-10.80045	-3.235E-10	285.379371	0.1000069	7.03121E-05	285.379371
-11.00049	-3.142E-10	285.403888	0.1000056	6.97623E-05	285.403888
-11.20049	-3.188E-10	285.428452	0.1000064	6.92099E-05	285.428452
-11.40049	-3.239E-10	285.452991	0.1000067	6.86569E-05	285.452991
-11.60049	-3.407E-10	285.477501	0.1000072	6.81005E-05	285.477501
-11.80048	-3.24E-10	285.502018	0.1000073	6.75417E-05	285.502018
-12.00046	-3.297E-10	285.526622	0.1000068	6.69812E-05	285.526622
#scan	iMeasureCycle=3	iMux=0	time=319.802	N=222	LocalTime=22/06/2023 08:08:11
#VGate(V)	IGate(A)	time(s)	VDrain(V)	IDrain(A)	time(s)
-12.00049	-6.81E-11	319.80951	0.1000065	6.71069E-05	319.80951
-11.80048	-1.6E-11	319.834406	0.1000061	6.76702E-05	319.834406
-11.60049	-4.6E-12	319.860038	0.1000073	6.82315E-05	319.860038
-11.40052	3.1E-11	319.884576	0.1000064	6.87906E-05	319.884576
-11.2005	5.3E-11	319.909092	0.100007	6.93472E-05	319.909092
-11.00049	5.08E-11	319.933614	0.1000064	6.98999E-05	319.933614
-10.80048	5.85E-11	319.958129	0.100006	7.04515E-05	319.958129
-10.60051	8.16E-11	319.98265	0.1000055	7.09998E-05	319.98265
-10.40051	8.02E-11	320.007163	0.1000061	7.15471E-05	320.007163
-10.20051	8.37E-11	320.031766	0.100006	7.20922E-05	320.031766
-10.00048	1.901E-10	320.056291	0.1000067	7.26358E-05	320.056291
-9.8005	1.376E-10	320.080856	0.1000056	7.31767E-05	320.080856
-9.60049	1.212E-10	320.105394	0.1000068	7.37146E-05	320.105394
-9.40049	1.156E-10	320.129922	0.1000063	7.42521E-05	320.129922
-9.20047	1.4E-10	320.154459	0.1000058	7.47864E-05	320.154459
-9.00049	1.352E-10	320.178982	0.1000061	7.53148E-05	320.178982
-8.80049	1.371E-10	320.203514	0.1000072	7.58425E-05	320.203514
-8.60051	1.531E-10	320.228032	0.1000066	7.63668E-05	320.228032
-8.4005	1.582E-10	320.252559	0.1000059	7.6887E-05	320.252559
-8.2005	5.32E-11	320.277027	0.1000065	7.74072E-05	320.277027
-8.00048	1.35E-10	320.301565	0.1000066	7.79252E-05	320.301565
-7.80049	1.573E-10	320.32607	0.1000054	7.84401E-05	320.32607
-7.6005	1.141E-10	320.373239	0.1000058	7.89528E-05	320.373239
-7.40049	1.561E-10	320.397838	0.1000053	7.94654E-05	320.397838
-7.2005	1.635E-10	320.422367	0.1000056	7.9977E-05	320.422367
-7.00051	1.562E-10	320.446896	0.1000064	8.04864E-05	320.446896
-6.8005	1.712E-10	320.471467	0.1000056	8.09931E-05	320.471467
-6.60052	1.825E-10	320.49609	0.1000055	8.14988E-05	320.49609
-6.40051	1.745E-10	320.520606	0.1000048	8.20017E-05	320.520606
-6.2005	1.838E-10	320.545138	0.1000052	8.25055E-05	320.545138
-6.0005	2.005E-10	320.569747	0.1000058	8.30068E-05	320.569747
-5.80051	1.89E-10	320.59422	0.100006	8.35048E-05	320.59422
-5.60051	2.007E-10	320.61873	0.1000051	8.40027E-05	320.61873
-5.4005	2.143E-10	320.643244	0.1000049	8.44986E-05	320.643244
-5.20049	2.106E-10	320.667762	0.100005	8.49924E-05	320.667762
-5.00051	2.152E-10	320.692298	0.100004	8.54838E-05	320.692298
-4.80047	2.2E-10	320.716819	0.1000042	8.59758E-05	320.716819
-4.60049	2.35E-10	320.741391	0.1000057	8.6467E-05	320.741391
-4.40051	2.219E-10	320.765925	0.1000053	8.69546E-05	320.765925
-4.2005	2.166E-10	320.790439	0.1000051	8.7442E-05	320.790439
-4.00051	2.434E-10	320.814963	0.1000052	8.79276E-05	320.814963
-3.80049	1.859E-10	320.874851	0.1000043	8.84095E-05	320.874851
-3.60052	2.123E-10	320.899394	0.1000043	8.88939E-05	320.899394
-3.4005	2.256E-10	320.923919	0.1000051	8.93756E-05	320.923919
-3.20049	2.4E-10	320.948466	0.1000048	8.98587E-05	320.948466
-3.00049	2.29E-10	320.973023	0.1000041	9.03388E-05	320.973023
-2.80051	2.341E-10	320.997626	0.1000044	9.08193E-05	320.997626
-2.60048	2.61E-10	321.022143	0.1000045	9.12975E-05	321.022143
-2.40051	2.501E-10	321.04666	0.1000044	9.17756E-05	321.04666
-2.2005	2.376E-10	321.07126	0.1000056	9.22547E-05	321.07126
-2.00051	2.671E-10	321.095816	0.1000047	9.27302E-05	321.095816
-1.80051	2.664E-10	321.120368	0.1000046	9.32081E-05	321.120368
-1.6005	2.698E-10	321.144892	0.1000049	9.36878E-05	321.144892
-1.40049	2.687E-10	321.169423	0.100004	9.41705E-05	321.169423
-1.20048	2.778E-10	321.19395	0.1000052	9.4661E-05	321.19395
-1.00053	2.814E-10	321.218476	0.1000047	9.51604E-05	321.218476
-0.8005	2.75E-10	321.242995	0.1000047	9.56687E-05	321.242995
-0.60051	2.871E-10	321.267529	0.1000046	9.61861E-05	321.267529
-0.4005	2.91E-10	321.292035	0.1000044	9.67132E-05	321.292035
-0.2005	2.786E-10	321.316576	0.1000043	9.72458E-05	321.316576
-0.00052	2.414E-10	321.376478	0.100004	9.77787E-05	321.376478
0.1995	2.751E-10	321.401218	0.1000042	9.83235E-05	321.401218
0.3995	2.789E-10	321.425772	0.100004	9.8867E-05	321.425772
0.59948	2.768E-10	321.45029	0.1000044	9.94137E-05	321.45029
0.79951	4.402E-10	321.474869	0.1000044	9.99625E-05	321.474869
0.9995	3.134E-10	321.49939	0.1000044	0.000100512	321.49939
1.1995	3.07E-10	321.523932	0.1000049	0.0001010623	321.523932
1.39949	3.255E-10	321.548448	0.1000038	0.0001016142	321.548448
1.59951	3.271E-10	321.573084	0.1000039	0.0001021681	321.573084
1.79948	3.243E-10	321.597629	0.1000039	0.0001027222	321.597629
1.9995	3.3E-10	321.62216	0.1000042	0.0001032815	321.62216
2.19951	3.335E-10	321.646674	0.1000041	0.0001038395	321.646674
2.3995	3.324E-10	321.671189	0.1000043	0.0001043993	321.671189
2.5995	2.794E-10	321.700746	0.0999999	0.000105033	321.700746
2.79947	3.152E-10	321.725277	0.0999999	0.000105592	321.725277
2.99949	3.21E-10	321.749853	0.1	0.000106153	321.749853
3.19951	3.384E-10	321.774366	0.1	0.000106716	321.774366
3.39948	3.407E-10	321.798894	0.0999999	0.000107274	321.798894
3.59949	3.364E-10	321.823408	0.0999999	0.000107833	321.823408
3.79947	3.034E-10	321.880801	0.0999999	0.000108389	321.880801
3.99949	3.206E-10	321.905342	0.1000001	0.000108948	321.905342
4.19947	3.317E-10	321.929858	0.0999999	0.000109505	321.929858
4.39948	3.519E-10	321.954392	0.0999999	0.000110062	321.954392
4.59949	3.496E-10	321.978961	0.1000001	0.000110617	321.978961
4.79949	3.435E-10	322.003504	0.0999999	0.000111168	322.003504
4.9995	3.691E-10	322.028093	0.1	0.000111715	322.028093
5.19949	3.554E-10	322.052625	0.1000001	0.000112261	322.052625
5.39948	3.639E-10	322.077226	0.0999999	0.000112805	322.077226
5.5995	3.631E-10	322.101756	0.1000001	0.000113346	322.101756
5.7995	3.776E-10	322.126293	0.1	0.000113884	322.126293
5.99949	3.707E-10	322.150804	0.0999998	0.000114418	322.150804
6.19949	3.721E-10	322.175321	0.1000002	0.000114949	322.175321
6.3995	3.885E-10	322.199925	0.0999999	0.000115477	322.199925
6.5995	3.876E-10	322.224457	0.1000001	0.000116005	322.224457
6.79948	3.755E-10	322.248962	0.1000001	0.000116527	322.248962
6.9995	3.883E-10	322.273504	0.1000002	0.000117045	322.273504
7.19949	4.05E-10	322.298017	0.1000001	0.000117562	322.298017
7.39949	3.94E-10	322.322538	0.1	0.000118075	322.322538
7.5995	3.504E-10	322.379565	0.0999999	0.000118581	322.379565
7.79949	3.758E-10	322.404331	0.0999997	0.000119089	322.404331
7.99948	3.73E-10	322.428867	0.0999998	0.000119594	322.428867
8.19948	3.898E-10	322.453369	0.1	0.000120096	322.453369
8.39951	4.09E-10	322.477965	0.1000001	0.000120597	322.477965
8.5995	3.978E-10	322.502476	0.1000001	0.000121089	322.502476
8.79949	4.02E-10	322.527017	0.1	0.000121585	322.527017
8.9995	4.19E-10	322.551528	0.0999999	0.000122073	322.551528
9.19948	4.104E-10	322.576136	0.0999999	0.000122563	322.576136
9.3995	4.11E-10	322.600671	0.0999998	0.000123054	322.600671
9.59947	4.196E-10	322.625193	0.1	0.00012354	322.625193
9.79951	4.118E-10	322.649712	0.1	0.000124024	322.649712
9.99949	4.203E-10	322.674222	0.0999999	0.000124507	322.674222
9.99949	3.726E-10	322.697559	0.1000001	0.000124508	322.697559
9.7995	2.824E-10	322.722099	0.1	0.000124029	322.722099
9.5995	2.424E-10	322.746683	0.0999999	0.000123545	322.746683
9.39951	2.101E-10	322.771208	0.0999998	0.000123064	322.771208
9.19949	2E-10	322.79572	0.0999999	0.000122574	322.79572
8.9995	1.715E-10	322.82025	0.1000001	0.000122088	322.82025
8.79949	3.103E-10	322.881328	0.0999999	0.000121589	322.881328
8.5995	1.59E-10	322.905811	0.0999998	0.000121088	322.905811
8.3995	1.418E-10	322.930341	0.1000001	0.000120585	322.930341
8.19949	1.158E-10	322.954852	0.0999998	0.000120075	322.954852
7.9995	1.043E-10	322.979441	0.0999999	0.000119565	322.979441
7.7995	9.92E-11	323.003949	0.0999998	0.00011905	323.003949
7.59951	7.74E-11	323.028564	0.1	0.000118536	323.028564
7.39949	5.87E-11	323.053081	0.1	0.000118019	323.053081
7.19948	7.18E-11	323.077644	0.1	0.000117496	323.077644
6.99948	-2.29E-11	323.102183	0.1	0.000116974	323.102183
6.79949	1.38E-11	323.126712	0.1000001	0.000116449	323.126712
6.59949	1.86E-11	323.151233	0.0999998	0.000115921	323.151233
6.3995	1.83E-11	323.175757	0.1	0.000115388	323.175757
6.19951	1.04E-11	323.200275	0.1	0.000114858	323.200275
5.9995	-1.04E-11	323.224886	0.1000001	0.00011432	323.224886
5.7995	-1.31E-11	323.249416	0.1	0.000113779	323.249416
5.59951	-4E-12	323.273931	0.1000001	0.000113237	323.273931
5.39949	-2.43E-11	323.298466	0.1	0.000112693	323.298466
5.1995	-3.13E-11	323.323009	0.0999999	0.000112144	323.323009
4.9995	2.26E-11	323.382962	0.0999998	0.000111597	323.382962
4.79949	-2.11E-11	323.407626	0.1000001	0.000111041	323.407626
4.59951	-3.6E-11	323.432141	0.0999999	0.000110485	323.432141
4.3995	-3.75E-11	323.456682	0.1000001	0.000109929	323.456682
4.19948	-4.73E-11	323.481263	0.1	0.000109369	323.481263
3.99951	-6.86E-11	323.505804	0.0999999	0.000108808	323.505804
3.79948	-5.37E-11	323.530329	0.0999999	0.000108247	323.530329
3.5995	-6.95E-11	323.554867	0.0999999	0.000107685	323.554867
3.39951	-8.42E-11	323.579474	0.1000003	0.000107122	323.579474
3.1995	-8.47E-11	323.604047	0.1000001	0.000106558	323.604047
2.99949	-7.68E-11	323.628566	0.1000001	0.000105996	323.628566
2.7995	-9.7E-11	323.653107	0.0999999	0.000105433	323.653107
2.59951	-1.036E-10	323.677604	0.1	0.00010487	323.677604
2.39951	-9.45E-11	323.702145	0.0999999	0.000104307	323.702145
2.19949	-9.89E-11	323.726663	0.0999998	0.000103747	323.726663
1.9995	-1.224E-10	323.751242	0.0999999	0.000103186	323.751242
1.7995	-1.211E-10	323.77577	0.0999998	0.000102628	323.77577
1.59951	-1.036E-10	323.800286	0.1000001	0.000102073	323.800286
1.39952	-1.267E-10	323.824809	0.1	0.000101518	323.824809
1.19951	-7.74E-11	323.884688	0.1	0.000100969	323.884688
0.99952	-1.182E-10	323.909228	0.1	0.000100415	323.909228
0.79949	-1.218E-10	323.933758	0.0999999	9.9867E-05	323.933758
0.59948	-1.436E-10	323.958285	0.1000001	9.9318E-05	323.958285
0.39953	-1.375E-10	323.982856	0.1000001	9.8771E-05	323.982856
0.19951	-1.397E-10	324.007401	0.1	9.8226E-05	324.007401
-0.0005	-1.625E-10	324.031943	0.1	9.7682E-05	324.031943
-0.2005	-1.65E-10	324.056502	0.1000002	9.7144E-05	324.056502
-0.40047	-1.489E-10	324.081067	0.1000002	9.6613E-05	324.081067
-0.60049	-1.755E-10	324.105625	0.0999999	9.6089E-05	324.105625
-0.8005	-1.838E-10	324.130161	0.0999999	9.5578E-05	324.130161
-1.0005	-1.718E-10	324.154685	0.1000002	9.5073E-05	324.154685
-1.20049	-1.773E-10	324.179202	0.0999999	9.4581E-05	324.179202
-1.40049	-1.885E-10	324.203724	0.1000001	9.4096E-05	324.203724
-1.60048	-1.923E-10	324.228241	0.1	9.3615E-05	324.228241
-1.80052	-1.933E-10	324.252767	0.1000001	9.3137E-05	324.252767
-2.00049	-1.777E-10	324.277287	0.1000002	9.2663E-05	324.277287
-2.20049	-1.654E-10	324.301809	0.1000001	9.2187E-05	324.301809
-2.4005	-1.877E-10	324.326323	0.0999999	9.171E-05	324.326323
-2.60048	-1.512E-10	324.386243	0.1	9.1234E-05	324.386243
-2.80048	-1.89E-10	324.410791	0.1000001	9.0755E-05	324.410791
-3.00048	-1.929E-10	324.435359	0.0999998	9.0275E-05	324.435359
-3.20048	-1.909E-10	324.459901	0.0999999	8.9796E-05	324.459901
-3.40049	-2.371E-10	324.484468	0.1	8.9313E-05	324.484468
-3.60049	-2.884E-10	324.508994	0.0999997	8.883E-05	324.508994
-3.80048	-2.135E-10	324.533505	0.1000003	8.8349E-05	324.533505
-4.0005	-2.028E-10	324.561377	0.1000048	8.7787E-05	324.561377
-4.2005	-2.348E-10	324.586015	0.1000053	8.73021E-05	324.586015
-4.40049	-2.504E-10	324.610533	0.100005	8.6816E-05	324.610533
-4.6005	-2.487E-10	324.635084	0.1000041	8.63264E-05	324.635084
-4.80048	-2.385E-10	324.659593	0.1000043	8.5837E-05	324.659593
-5.00049	-2.493E-10	324.684117	0.1000056	8.53466E-05	324.684117
-5.20048	-2.676E-10	324.70864	0.1000056	8.48545E-05	324.70864
-5.40051	-2.364E-10	324.733165	0.1000048	8.4359E-05	324.733165
-5.6005	-2.564E-10	324.757722	0.100005	8.38628E-05	324.757722
-5.80048	-2.715E-10	324.782245	0.100005	8.33645E-05	324.782245
-6.0005	-2.555E-10	324.806751	0.1000049	8.28654E-05	324.806751
-6.2005	-2.628E-10	324.831332	0.1000053	8.23646E-05	324.831332
-6.40046	-2.245E-10	324.890619	0.1000048	8.18639E-05	324.890619
-6.6005	-2.469E-10	324.915146	0.1000054	8.13574E-05	324.915146
-6.80048	-2.426E-10	324.939687	0.1000053	8.08512E-05	324.939687
-7.00048	-2.691E-10	324.96424	0.1000057	8.03422E-05	324.96424
-7.20047	-2.701E-10	324.988878	0.1000055	7.98301E-05	324.988878
-7.40049	-2.67E-10	325.013398	0.1000042	7.93161E-05	325.013398
-7.60047	-2.831E-10	325.03791	0.1000058	7.88039E-05	325.03791
-7.80049	-2.862E-10	325.062439	0.1000065	7.82882E-05	325.062439
-8.0005	-2.832E-10	325.087015	0.1000056	7.77668E-05	325.087015
-8.20048	-2.899E-10	325.111555	0.1000053	7.72454E-05	325.111555
-8.4005	-2.938E-10	325.136076	0.1000055	7.67233E-05	325.136076
-8.6005	-3.03E-10	325.160609	0.1000058	7.61982E-05	325.160609
-8.80051	-2.902E-10	325.185112	0.1000058	7.56694E-05	325.185112
-9.00048	-3.024E-10	325.209648	0.1000055	7.51415E-05	325.209648
-9.20044	-3.19E-10	325.234159	0.1000043	7.46104E-05	325.234159
-9.40047	-2.954E-10	325.25869	0.1000063	7.40765E-05	325.25869
-9.6005	-3.07E-10	325.283201	0.1000064	7.35431E-05	325.283201
-9.80049	-3.235E-10	325.307711	0.1000066	7.30083E-05	325.307711
-10.00049	-3.155E-10	325.332241	0.1000063	7.2471E-05	325.332241
-10.20049	-2.705E-10	325.389507	0.1000061	7.19385E-05	325.389507
-10.40048	-3.069E-10	325.414048	0.1000071	7.13977E-05	325.414048
-10.60051	-3.032E-10	325.438578	0.1000061	7.08516E-05	325.438578
-10.80049	-3.202E-10	325.463106	0.1000059	7.0305E-05	325.463106
-11.00046	-3.297E-10	325.48769	0.1000065	6.9755E-05	325.48769
-11.20049	-3.279E-10	325.512201	0.1000064	6.92041E-05	325.512201
-11.40052	-3.164E-10	325.536824	0.1000067	6.86497E-05	325.536824
-11.60049	-3.341E-10	325.561344	0.1000064	6.80921E-05	325.561344
-11.80049	-3.316E-10	325.586204	0.1000064	6.7534E-05	325.586204
-12.00049	-3.359E-10	325.610742	0.1000059	6.69728E-05	325.610742
