#scan	iMeasureCycle=1	iMux=0	time=0.037	N=222	LocalTime=22/06/2023 03:08:49
#VGate(V)	IGate(A)	time(s)	VDrain(V)	IDrain(A)	time(s)
-12.00049	-3.1777E-09	0.060306	0.1000055	5.7524E-05	0.060306
-11.8005	-3.0328E-09	0.08518	0.1000059	5.81203E-05	0.08518
-11.60052	-1.3463E-09	0.109712	0.1000065	5.8714E-05	0.109712
-11.40049	-5.22E-10	0.134194	0.1000053	5.9305E-05	0.134194
-11.20052	-3.399E-10	0.158728	0.100006	5.98951E-05	0.158728
-11.0005	-2.117E-10	0.183254	0.1000065	6.04826E-05	0.183254
-10.8005	-1.561E-10	0.20781	0.1000055	6.10675E-05	0.20781
-10.6005	-1.058E-10	0.232312	0.1000062	6.16513E-05	0.232312
-10.40049	-7.78E-11	0.256869	0.1000059	6.22329E-05	0.256869
-10.2005	-5.05E-11	0.281449	0.1000063	6.2813E-05	0.281449
-10.00049	-2.18E-11	0.305964	0.1000061	6.33904E-05	0.305964
-9.80049	-2.4E-12	0.330489	0.1000052	6.39665E-05	0.330489
-9.6005	5.9E-12	0.355017	0.1000056	6.45405E-05	0.355017
-9.40048	2.93E-11	0.379626	0.1000051	6.51111E-05	0.379626
-9.2005	4.26E-11	0.404146	0.1000069	6.56831E-05	0.404146
-9.00051	6.79E-11	0.428673	0.1000058	6.62463E-05	0.428673
-8.80048	5.89E-11	0.453293	0.1000053	6.68103E-05	0.453293
-8.6005	4.8E-11	0.477892	0.1000057	6.73689E-05	0.477892
-8.40049	1.022E-10	0.502412	0.1000058	6.79266E-05	0.502412
-8.20048	9.66E-11	0.52696	0.1000063	6.8482E-05	0.52696
-8.00048	8.72E-11	0.551505	0.1000059	6.90353E-05	0.551505
-7.8005	1.029E-10	0.576044	0.1000061	6.95873E-05	0.576044
-7.60049	5.63E-11	0.623598	0.1000051	7.01328E-05	0.623598
-7.4005	1.14E-10	0.648155	0.1000055	7.06829E-05	0.648155
-7.20049	1.211E-10	0.672688	0.1000068	7.12313E-05	0.672688
-7.0005	1.239E-10	0.69721	0.1000058	7.17769E-05	0.69721
-6.80049	1.272E-10	0.721787	0.1000062	7.23199E-05	0.721787
-6.60051	1.625E-10	0.746333	0.1000052	7.28608E-05	0.746333
-6.40052	1.546E-10	0.770862	0.1000041	7.34002E-05	0.770862
-6.2005	3.01E-10	0.795386	0.1000065	7.39393E-05	0.795386
-6.0005	1.776E-10	0.819902	0.1000054	7.4476E-05	0.819902
-5.80051	1.887E-10	0.844517	0.1000058	7.50097E-05	0.844517
-5.60047	1.886E-10	0.869038	0.100005	7.5542E-05	0.869038
-5.40051	1.868E-10	0.893558	0.1000058	7.60744E-05	0.893558
-5.2005	1.97E-10	0.918074	0.100006	7.66034E-05	0.918074
-5.00051	2.049E-10	0.942562	0.1000061	7.7132E-05	0.942562
-4.80047	2.056E-10	0.967189	0.1000068	7.76592E-05	0.967189
-4.6005	5.68E-11	0.991724	0.1000048	7.81835E-05	0.991724
-4.40049	1.945E-10	1.016261	0.1000049	7.8708E-05	1.016261
-4.2005	2.102E-10	1.040975	0.1000054	7.923E-05	1.040975
-4.00049	2.108E-10	1.06553	0.1000051	7.97519E-05	1.06553
-3.80047	1.762E-10	1.125075	0.1000052	8.02669E-05	1.125075
-3.60048	2.034E-10	1.14961	0.1000048	8.07886E-05	1.14961
-3.4005	2.091E-10	1.17414	0.100005	8.13073E-05	1.17414
-3.2005	2.236E-10	1.198672	0.1000055	8.18256E-05	1.198672
-3.0005	2.344E-10	1.223233	0.1000046	8.23428E-05	1.223233
-2.80049	2.385E-10	1.247772	0.1000052	8.28592E-05	1.247772
-2.60052	2.443E-10	1.27229	0.1000053	8.33759E-05	1.27229
-2.40051	2.451E-10	1.296825	0.100005	8.38886E-05	1.296825
-2.20048	2.556E-10	1.321332	0.1000055	8.44028E-05	1.321332
-2.00049	2.594E-10	1.345941	0.100005	8.49168E-05	1.345941
-1.80051	2.79E-10	1.370624	0.1000051	8.54283E-05	1.370624
-1.60051	2.656E-10	1.395153	0.1000046	8.59424E-05	1.395153
-1.4005	2.539E-10	1.419674	0.1000043	8.64582E-05	1.419674
-1.20049	2.874E-10	1.444194	0.1000045	8.69799E-05	1.444194
-1.0005	2.936E-10	1.468709	0.1000041	8.75088E-05	1.468709
-0.80051	2.818E-10	1.49323	0.1000049	8.80496E-05	1.49323
-0.60049	2.613E-10	1.517771	0.1000054	8.86008E-05	1.517771
-0.4005	3.056E-10	1.542395	0.100005	8.91611E-05	1.542395
-0.20051	3.115E-10	1.566926	0.1000045	8.9731E-05	1.566926
-0.00049	2.547E-10	1.626664	0.1000043	9.03019E-05	1.626664
0.19949	2.882E-10	1.65121	0.100005	9.08862E-05	1.65121
0.39951	2.861E-10	1.675714	0.100005	9.14735E-05	1.675714
0.59952	2.971E-10	1.700255	0.1000052	9.20616E-05	1.700255
0.79947	3.102E-10	1.724822	0.1000044	9.26526E-05	1.724822
0.99949	3.135E-10	1.749345	0.1000043	9.32456E-05	1.749345
1.19948	3.17E-10	1.77389	0.1000043	9.38403E-05	1.77389
1.3995	3.026E-10	1.798404	0.1000048	9.44367E-05	1.798404
1.5995	3.45E-10	1.822917	0.1000044	9.5037E-05	1.822917
1.79948	3.412E-10	1.847436	0.1000046	9.56381E-05	1.847436
1.99949	3.165E-10	1.871946	0.1000036	9.624E-05	1.871946
2.19951	3.395E-10	1.89647	0.1000039	9.68454E-05	1.89647
2.3995	3.496E-10	1.920976	0.1000037	9.74504E-05	1.920976
2.59951	3.398E-10	1.945483	0.1000042	9.80577E-05	1.945483
2.7995	3.407E-10	1.970136	0.1000034	9.8664E-05	1.970136
2.99947	3.619E-10	1.994644	0.1000035	9.92714E-05	1.994644
3.1995	3.435E-10	2.019172	0.1000037	9.98797E-05	2.019172
3.3995	3.596E-10	2.043933	0.1000033	0.0001004862	2.043933
3.59951	3.692E-10	2.068539	0.1000045	0.0001010941	2.068539
3.79949	3.083E-10	2.124157	0.1000038	0.0001016932	2.124157
3.99948	3.575E-10	2.148688	0.1000037	0.0001023003	2.148688
4.19949	3.587E-10	2.17322	0.1000043	0.0001029015	2.17322
4.39949	6.022E-10	2.197756	0.1000037	0.0001035035	2.197756
4.59951	3.971E-10	2.222333	0.100004	0.0001041023	2.222333
4.79948	3.939E-10	2.246856	0.1000041	0.000104698	2.246856
4.99948	3.476E-10	2.276507	0.0999999	0.000105365	2.276507
5.19949	3.895E-10	2.301025	0.1000001	0.000105955	2.301025
5.39949	3.807E-10	2.325627	0.1	0.000106543	2.325627
5.5995	3.809E-10	2.350144	0.1	0.000107126	2.350144
5.7995	3.934E-10	2.374809	0.0999998	0.000107704	2.374809
5.99948	3.846E-10	2.399322	0.0999999	0.000108283	2.399322
6.19948	4.071E-10	2.423867	0.0999999	0.000108854	2.423867
6.39951	4.123E-10	2.448371	0.1	0.000109424	2.448371
6.5995	3.984E-10	2.472986	0.0999998	0.000109989	2.472986
6.7995	3.999E-10	2.497505	0.0999999	0.000110553	2.497505
6.99949	4.124E-10	2.522023	0.1000002	0.000111112	2.522023
7.1995	4.239E-10	2.54656	0.0999998	0.000111664	2.54656
7.39948	4.189E-10	2.571093	0.1000001	0.000112217	2.571093
7.5995	3.492E-10	2.632703	0.1000003	0.000112761	2.632703
7.79951	1.222E-10	2.657245	0.0999998	0.000113308	2.657245
7.99948	3.957E-10	2.681767	0.0999999	0.000113853	2.681767
8.19949	4.106E-10	2.706285	0.1000002	0.000114393	2.706285
8.3995	3.901E-10	2.730862	0.1	0.00011493	2.730862
8.59951	4.254E-10	2.755384	0.1000001	0.000115461	2.755384
8.7995	4.1E-10	2.779939	0.1000002	0.000115992	2.779939
8.9995	4.156E-10	2.804456	0.1	0.000116516	2.804456
9.19952	4.403E-10	2.82897	0.1	0.00011704	2.82897
9.39949	4.268E-10	2.853434	0.1	0.000117564	2.853434
9.5995	4.123E-10	2.877969	0.0999999	0.000118084	2.877969
9.79947	4.356E-10	2.902466	0.0999999	0.000118606	2.902466
9.99949	4.546E-10	2.926975	0.1000001	0.000119121	2.926975
9.99946	3.815E-10	2.950334	0.0999998	0.000119122	2.950334
9.7995	2.885E-10	2.974875	0.1	0.000118605	2.974875
9.59947	2.538E-10	2.999429	0.0999998	0.000118088	2.999429
9.3995	2.385E-10	3.023937	0.1	0.000117568	3.023937
9.19952	2.025E-10	3.048532	0.1	0.000117043	3.048532
8.99951	1.744E-10	3.073039	0.0999999	0.000116518	3.073039
8.79951	1.973E-10	3.131556	0.0999997	0.000115986	3.131556
8.59952	1.425E-10	3.156069	0.1	0.000115447	3.156069
8.39951	1.43E-10	3.18061	0.0999999	0.000114906	3.18061
8.1995	1.196E-10	3.205117	0.1000002	0.000114359	3.205117
7.99948	1.024E-10	3.229699	0.0999999	0.000113811	3.229699
7.79952	8.83E-11	3.254212	0.0999997	0.00011326	3.254212
7.5995	6.95E-11	3.278747	0.1000003	0.000112705	3.278747
7.39949	6.85E-11	3.303267	0.0999999	0.000112148	3.303267
7.19949	5.46E-11	3.327802	0.1000002	0.000111586	3.327802
6.99949	6.3E-11	3.352303	0.1000001	0.000111023	3.352303
6.79949	2.58E-11	3.376865	0.1000001	0.000110455	3.376865
6.59951	2.04E-11	3.4014	0.1000002	0.000109887	3.4014
6.39951	3.16E-11	3.425917	0.0999999	0.000109314	3.425917
6.19951	1.48E-11	3.450433	0.1000001	0.000108735	3.450433
5.99948	-5.9E-12	3.474949	0.0999999	0.000108157	3.474949
5.79951	-5.5E-12	3.49948	0.0999999	0.000107575	3.49948
5.59952	-2E-13	3.524015	0.1000001	0.000106988	3.524015
5.3995	-3.9E-12	3.548566	0.1	0.000106398	3.548566
5.1995	-3.61E-11	3.573177	0.0999998	0.000105806	3.573177
4.9995	4.55E-11	3.633337	0.1000001	0.000105212	3.633337
4.7995	-1.48E-11	3.657866	0.0999998	0.000104612	3.657866
4.59949	-1.75E-11	3.682393	0.0999998	0.000104012	3.682393
4.3995	-2.77E-11	3.706925	0.1	0.000103405	3.706925
4.19951	-4.22E-11	3.731495	0.0999999	0.0001028	3.731495
3.9995	-5.42E-11	3.75603	0.0999998	0.000102195	3.75603
3.7995	-6.68E-11	3.780551	0.1000002	0.000101586	3.780551
3.59952	-5.8E-11	3.805084	0.1000001	0.000100976	3.805084
3.39949	-6.23E-11	3.829607	0.0999999	0.000100364	3.829607
3.19949	-8.47E-11	3.854144	0.0999999	9.9754E-05	3.854144
2.99951	-9.4E-11	3.87869	0.1	9.9141E-05	3.87869
2.79951	-8.77E-11	3.903221	0.1000001	9.8531E-05	3.903221
2.59953	-1.478E-10	3.927741	0.0999999	9.7921E-05	3.927741
2.39948	-1.489E-10	3.952259	0.1	9.731E-05	3.952259
2.19952	-1.161E-10	3.976782	0.1000002	9.6703E-05	3.976782
1.99953	-1.285E-10	4.001326	0.0999999	9.6095E-05	4.001326
1.79949	-1.328E-10	4.025845	0.1	9.549E-05	4.025845
1.59952	-1.252E-10	4.050464	0.0999999	9.4886E-05	4.050464
1.3995	-1.371E-10	4.074982	0.0999999	9.4285E-05	4.074982
1.19951	-9.86E-11	4.134806	0.1	9.3689E-05	4.134806
0.99948	-1.185E-10	4.159329	0.1000002	9.3092E-05	4.159329
0.79951	-1.201E-10	4.183864	0.1	9.2496E-05	4.183864
0.59951	-1.387E-10	4.208402	0.1	9.1904E-05	4.208402
0.39952	-1.565E-10	4.232975	0.0999998	9.1316E-05	4.232975
0.1995	-1.588E-10	4.257504	0.1	9.0727E-05	4.257504
-0.00052	-1.555E-10	4.282008	0.1000003	9.0144E-05	4.282008
-0.20051	-1.638E-10	4.306545	0.0999999	8.9566E-05	4.306545
-0.4005	-1.727E-10	4.331061	0.0999998	8.9E-05	4.331061
-0.60048	-1.737E-10	4.355602	0.1	8.8443E-05	4.355602
-0.80048	-1.89E-10	4.380114	0.1	8.7899E-05	4.380114
-1.0005	-1.549E-10	4.408011	0.1000046	8.72868E-05	4.408011
-1.2005	-1.979E-10	4.432529	0.100005	8.67659E-05	4.432529
-1.40047	-2.053E-10	4.45703	0.1000051	8.62493E-05	4.45703
-1.6005	-1.905E-10	4.481619	0.1000043	8.57343E-05	4.481619
-1.8005	-2.076E-10	4.506129	0.1000047	8.52226E-05	4.506129
-2.0005	-2.122E-10	4.530664	0.1000052	8.47111E-05	4.530664
-2.20051	-2.073E-10	4.555196	0.1000043	8.41975E-05	4.555196
-2.40048	-2.245E-10	4.579726	0.1000045	8.36841E-05	4.579726
-2.60047	-1.696E-10	4.639502	0.100005	8.3172E-05	4.639502
-2.80049	-1.969E-10	4.66405	0.1000053	8.26579E-05	4.66405
-3.00047	-1.943E-10	4.688572	0.1000044	8.2142E-05	4.688572
-3.2005	-2.293E-10	4.713187	0.1000048	8.16242E-05	4.713187
-3.40048	-2.296E-10	4.737764	0.1000053	8.11072E-05	4.737764
-3.60048	-2.265E-10	4.762303	0.1000055	8.05884E-05	4.762303
-3.80048	-2.396E-10	4.786888	0.1000051	8.00689E-05	4.786888
-4.0005	-2.394E-10	4.811411	0.1000065	7.95474E-05	4.811411
-4.20047	-2.366E-10	4.835929	0.1000053	7.90268E-05	4.835929
-4.40047	-2.618E-10	4.860444	0.1000049	7.85037E-05	4.860444
-4.60049	-2.545E-10	4.884967	0.1000049	7.79785E-05	4.884967
-4.80049	-2.472E-10	4.909559	0.1000056	7.74536E-05	4.909559
-5.00049	-2.668E-10	4.934085	0.1000057	7.69248E-05	4.934085
-5.20047	-2.73E-10	4.958597	0.1000062	7.63967E-05	4.958597
-5.40048	-2.643E-10	4.983191	0.100006	7.58656E-05	4.983191
-5.60048	-1.731E-10	5.007726	0.1000051	7.53317E-05	5.007726
-5.80051	-2.449E-10	5.032266	0.1000048	7.47985E-05	5.032266
-6.00047	-2.836E-10	5.056841	0.1000063	7.42618E-05	5.056841
-6.20048	-2.607E-10	5.08136	0.100006	7.37247E-05	5.08136
-6.40048	-2.373E-10	5.138218	0.1000057	7.31873E-05	5.138218
-6.60048	-2.515E-10	5.162759	0.1000063	7.26459E-05	5.162759
-6.8005	-2.607E-10	5.187281	0.1000064	7.21008E-05	5.187281
-7.0005	-2.756E-10	5.211799	0.1000071	7.15559E-05	5.211799
-7.20048	-2.804E-10	5.236375	0.1000059	7.10078E-05	5.236375
-7.4005	-2.892E-10	5.260889	0.1000053	7.04591E-05	5.260889
-7.60047	-2.85E-10	5.285395	0.1000056	6.99078E-05	5.285395
-7.80047	-3.817E-10	5.309919	0.1000055	6.93547E-05	5.309919
-8.0005	-3.072E-10	5.33443	0.1000062	6.87996E-05	5.33443
-8.20047	-3.162E-10	5.358956	0.1000066	6.82418E-05	5.358956
-8.40049	-3.22E-10	5.38351	0.1000059	6.76823E-05	5.38351
-8.60048	-2.989E-10	5.408089	0.1000066	6.71227E-05	5.408089
-8.80046	-3.129E-10	5.432624	0.1000061	6.65597E-05	5.432624
-9.00047	-3.364E-10	5.45714	0.1000064	6.59934E-05	5.45714
-9.20046	-3.255E-10	5.481668	0.100006	6.54276E-05	5.481668
-9.40047	-3.138E-10	5.506155	0.1000055	6.48586E-05	5.506155
-9.60049	-3.304E-10	5.530671	0.1000056	6.4288E-05	5.530671
-9.8005	-3.407E-10	5.555204	0.1000063	6.37193E-05	5.555204
-10.00047	-3.389E-10	5.579728	0.1000064	6.31464E-05	5.579728
-10.20048	-2.817E-10	5.639984	0.1000058	6.25801E-05	5.639984
-10.40048	-3.179E-10	5.664502	0.100005	6.20031E-05	5.664502
-10.60049	-3.15E-10	5.689048	0.1000063	6.14241E-05	5.689048
-10.80046	-3.266E-10	5.71357	0.1000053	6.0843E-05	5.71357
-11.00047	-3.386E-10	5.738153	0.1000063	6.02612E-05	5.738153
-11.20051	-3.488E-10	5.762671	0.1000047	5.96758E-05	5.762671
-11.40048	-3.331E-10	5.787201	0.1000056	5.90895E-05	5.787201
-11.60048	-3.416E-10	5.811819	0.1000057	5.85027E-05	5.811819
-11.80052	-3.668E-10	5.836359	0.1000064	5.79123E-05	5.836359
-12.00048	-3.664E-10	5.860875	0.1000059	5.732E-05	5.860875
#scan	iMeasureCycle=2	iMux=0	time=279.813	N=222	LocalTime=22/06/2023 03:13:29
#VGate(V)	IGate(A)	time(s)	VDrain(V)	IDrain(A)	time(s)
-12.00049	-7.58E-11	279.820737	0.1000051	5.74771E-05	279.820737
-11.80048	-2.39E-11	279.845633	0.1000064	5.80729E-05	279.845633
-11.60051	6.5E-12	279.871227	0.1000052	5.86645E-05	279.871227
-11.4005	3.64E-11	279.89574	0.1000049	5.92555E-05	279.89574
-11.20049	4.7E-11	279.920274	0.1000073	5.98443E-05	279.920274
-11.00049	5.93E-11	279.944876	0.1000065	6.04319E-05	279.944876
-10.80047	7.39E-11	279.969416	0.1000062	6.10171E-05	279.969416
-10.6005	8.81E-11	279.993999	0.1000058	6.15995E-05	279.993999
-10.4005	8.49E-11	280.018534	0.1000069	6.21816E-05	280.018534
-10.2005	1.046E-10	280.043062	0.1000055	6.27601E-05	280.043062
-10.00049	1.137E-10	280.067614	0.1000054	6.33371E-05	280.067614
-9.80048	1.056E-10	280.092208	0.1000053	6.39142E-05	280.092208
-9.6005	1.099E-10	280.116745	0.1000063	6.44878E-05	280.116745
-9.40049	1.465E-10	280.14127	0.1000064	6.5061E-05	280.14127
-9.20048	1.281E-10	280.165828	0.1000055	6.56298E-05	280.165828
-9.0005	1.221E-10	280.190336	0.1000059	6.61953E-05	280.190336
-8.80049	1.485E-10	280.21487	0.1000065	6.67586E-05	280.21487
-8.6005	1.451E-10	280.239487	0.1000049	6.73178E-05	280.239487
-8.40048	1.503E-10	280.264115	0.1000063	6.78755E-05	280.264115
-8.2005	1.45E-10	280.288648	0.1000056	6.84326E-05	280.288648
-8.00051	1.661E-10	280.313165	0.1000059	6.89874E-05	280.313165
-7.80049	1.734E-10	280.337702	0.1000057	6.95392E-05	280.337702
-7.60051	1.228E-10	280.384364	0.1000052	7.00877E-05	280.384364
-7.4005	1.53E-10	280.408907	0.1000058	7.06372E-05	280.408907
-7.2005	1.639E-10	280.433461	0.1000047	7.11851E-05	280.433461
-7.00049	1.996E-10	280.458007	0.1000059	7.17319E-05	280.458007
-6.80048	1.809E-10	280.482583	0.1000045	7.22761E-05	280.482583
-6.60051	1.691E-10	280.507164	0.1000059	7.28187E-05	280.507164
-6.40049	2.103E-10	280.531684	0.1000053	7.33585E-05	280.531684
-6.20051	2.016E-10	280.556442	0.1000056	7.3898E-05	280.556442
-6.00051	2.029E-10	280.580969	0.100006	7.44344E-05	280.580969
-5.8005	2.011E-10	280.605575	0.1000047	7.4969E-05	280.605575
-5.6005	2.135E-10	280.630194	0.1000053	7.55033E-05	280.630194
-5.40051	2.133E-10	280.654711	0.1000054	7.60358E-05	280.654711
-5.2005	2.182E-10	280.679241	0.1000052	7.65656E-05	280.679241
-5.00049	2.19E-10	280.703753	0.1000058	7.70958E-05	280.703753
-4.80049	2.261E-10	280.728305	0.1000054	7.76228E-05	280.728305
-4.60049	4.079E-10	280.752827	0.1000065	7.8148E-05	280.752827
-4.40049	2.461E-10	280.777374	0.1000056	7.86732E-05	280.777374
-4.2005	2.549E-10	280.801879	0.1000058	7.91957E-05	280.801879
-4.00049	2.496E-10	280.82648	0.1000052	7.97172E-05	280.82648
-3.80048	1.834E-10	280.886015	0.1000053	8.0234E-05	280.886015
-3.6005	2.25E-10	280.910557	0.1000058	8.07539E-05	280.910557
-3.40051	2.46E-10	280.935154	0.1000054	8.12725E-05	280.935154
-3.20051	2.385E-10	280.959698	0.1000058	8.17904E-05	280.959698
-3.00049	2.48E-10	280.984277	0.1000068	8.23085E-05	280.984277
-2.80051	2.589E-10	281.008851	0.1000054	8.28236E-05	281.008851
-2.60049	1.019E-10	281.033363	0.1000043	8.33384E-05	281.033363
-2.40051	2.411E-10	281.058014	0.1000048	8.38527E-05	281.058014
-2.2005	2.677E-10	281.082553	0.1000051	8.43663E-05	281.082553
-2.00051	2.529E-10	281.107064	0.1000045	8.48806E-05	281.107064
-1.8005	2.631E-10	281.131674	0.1000058	8.53928E-05	281.131674
-1.60049	2.728E-10	281.156188	0.1000054	8.59077E-05	281.156188
-1.4005	2.735E-10	281.180721	0.1000037	8.64229E-05	281.180721
-1.20052	2.806E-10	281.205249	0.100005	8.69447E-05	281.205249
-1.0005	2.737E-10	281.229774	0.1000048	8.74742E-05	281.229774
-0.8005	3.041E-10	281.254301	0.100005	8.80125E-05	281.254301
-0.60049	2.992E-10	281.278914	0.1000048	8.85638E-05	281.278914
-0.40049	2.815E-10	281.303428	0.1000055	8.91272E-05	281.303428
-0.20052	3.106E-10	281.327944	0.1000044	8.96965E-05	281.327944
-0.0005	2.517E-10	281.387951	0.1000039	9.02683E-05	281.387951
0.19948	2.727E-10	281.412466	0.1000036	9.08527E-05	281.412466
0.3995	2.95E-10	281.436997	0.1000039	9.1442E-05	281.436997
0.59951	3.17E-10	281.461516	0.1000056	9.20326E-05	281.461516
0.79951	3.024E-10	281.4861	0.1000047	9.2624E-05	281.4861
0.99951	2.93E-10	281.51067	0.1000035	9.32175E-05	281.51067
1.1995	3.334E-10	281.535205	0.1000045	9.3813E-05	281.535205
1.39948	3.229E-10	281.559801	0.1000051	9.44123E-05	281.559801
1.5995	3.234E-10	281.584328	0.1000044	9.50109E-05	281.584328
1.79949	3.217E-10	281.608927	0.1000039	9.56124E-05	281.608927
1.99949	3.284E-10	281.633449	0.1000035	9.6217E-05	281.633449
2.19951	3.425E-10	281.658001	0.1000041	9.68223E-05	281.658001
2.39949	3.357E-10	281.682517	0.1000038	9.74294E-05	281.682517
2.59948	3.461E-10	281.707035	0.100004	9.80356E-05	281.707035
2.79948	3.412E-10	281.731561	0.1000031	9.86428E-05	281.731561
2.9995	3.369E-10	281.756183	0.1000038	9.92503E-05	281.756183
3.1995	3.589E-10	281.780766	0.1000034	9.98603E-05	281.780766
3.3995	3.617E-10	281.805307	0.1000045	0.0001004692	281.805307
3.5995	3.444E-10	281.829812	0.1000034	0.0001010755	281.829812
3.7995	2.922E-10	281.889291	0.100004	0.0001016769	281.889291
3.9995	3.464E-10	281.913807	0.1000042	0.0001022829	281.913807
4.19949	3.456E-10	281.938413	0.1000034	0.0001028874	281.938413
4.39949	3.447E-10	281.962942	0.1000037	0.0001034898	281.962942
4.59949	3.75E-10	281.987525	0.1000035	0.0001040891	281.987525
4.79952	3.63E-10	282.012095	0.1000043	0.0001046866	282.012095
4.99949	3.478E-10	282.041757	0.0999997	0.000105361	282.041757
5.1995	3.698E-10	282.06631	0.0999999	0.00010595	282.06631
5.39947	3.624E-10	282.090907	0.0999999	0.000106536	282.090907
5.59949	3.848E-10	282.115435	0.0999999	0.00010712	282.115435
5.7995	3.856E-10	282.139953	0.1000001	0.000107702	282.139953
5.9995	5.304E-10	282.164469	0.1000001	0.000108279	282.164469
6.1995	3.945E-10	282.188982	0.1	0.000108855	282.188982
6.39948	4.096E-10	282.213498	0.1000001	0.000109425	282.213498
6.59948	4.018E-10	282.238018	0.1	0.000109992	282.238018
6.79948	4.022E-10	282.262537	0.0999996	0.000110555	282.262537
6.99948	4.114E-10	282.287145	0.0999999	0.000111115	282.287145
7.19947	3.979E-10	282.311675	0.1000001	0.000111673	282.311675
7.39949	4.112E-10	282.3362	0.0999998	0.000112225	282.3362
7.5995	3.554E-10	282.393614	0.1000001	0.000112771	282.393614
7.79952	3.961E-10	282.418157	0.1000002	0.000113317	282.418157
7.99948	2.395E-10	282.44266	0.1000001	0.000113862	282.44266
8.1995	4.01E-10	282.467211	0.1000001	0.000114401	282.467211
8.39948	3.89E-10	282.492019	0.1	0.00011494	282.492019
8.59951	4.039E-10	282.51654	0.1	0.00011547	282.51654
8.79952	4.186E-10	282.541056	0.0999998	0.000116002	282.541056
8.99951	4.18E-10	282.565724	0.1000001	0.000116529	282.565724
9.19949	4.018E-10	282.590253	0.1	0.000117054	282.590253
9.3995	4.119E-10	282.614857	0.1000001	0.000117581	282.614857
9.59948	4.335E-10	282.639376	0.1000002	0.000118101	282.639376
9.79949	4.343E-10	282.663902	0.0999999	0.000118621	282.663902
9.99948	4.232E-10	282.688413	0.0999999	0.000119135	282.688413
9.99947	3.859E-10	282.711754	0.0999998	0.000119136	282.711754
9.79951	2.868E-10	282.736275	0.0999999	0.00011862	282.736275
9.59951	2.417E-10	282.760789	0.1000004	0.000118102	282.760789
9.3995	2.253E-10	282.785325	0.0999998	0.000117583	282.785325
9.19949	1.917E-10	282.809837	0.1	0.00011706	282.809837
8.99951	1.651E-10	282.834363	0.1	0.000116533	282.834363
8.79948	2.004E-10	282.892456	0.0999997	0.000116002	282.892456
8.59951	1.517E-10	282.916976	0.1	0.000115461	282.916976
8.39951	1.225E-10	282.941591	0.0999998	0.000114922	282.941591
8.1995	1.059E-10	282.966211	0.1	0.000114375	282.966211
7.99951	9.83E-11	282.990786	0.0999999	0.000113825	282.990786
7.79952	8.53E-11	283.01536	0.0999999	0.000113272	283.01536
7.59948	7.03E-11	283.039879	0.1000001	0.000112718	283.039879
7.3995	7.64E-11	283.064435	0.0999998	0.000112161	283.064435
7.1995	4.81E-11	283.088964	0.1000001	0.000111601	283.088964
6.9995	3.18E-11	283.113476	0.1	0.000111036	283.113476
6.7995	4.96E-11	283.137983	0.1	0.00011047	283.137983
6.59953	2.74E-11	283.162503	0.0999997	0.0001099	283.162503
6.39948	1.3E-11	283.187011	0.0999999	0.000109327	283.187011
6.1995	-3.5E-12	283.211528	0.1	0.00010875	283.211528
5.9995	1.19E-11	283.236042	0.1000001	0.000108172	283.236042
5.7995	-1.2E-12	283.260567	0.0999998	0.000107588	283.260567
5.59952	-1.75E-11	283.285168	0.1000001	0.000107001	283.285168
5.39949	-2.49E-11	283.309705	0.0999998	0.00010641	283.309705
5.1995	-2.33E-11	283.334214	0.0999999	0.000105817	283.334214
4.99951	2.16E-11	283.394452	0.1	0.000105226	283.394452
4.79949	-1.42E-11	283.418999	0.1	0.000104626	283.418999
4.59951	-2.43E-11	283.443505	0.1	0.000104025	283.443505
4.39949	-4.62E-11	283.468043	0.0999999	0.00010342	283.468043
4.19951	-6.18E-11	283.492607	0.0999999	0.000102812	283.492607
3.99949	-4.06E-11	283.51719	0.1000001	0.000102207	283.51719
3.7995	-6.39E-11	283.541709	0.0999997	0.000101597	283.541709
3.5995	6.87E-11	283.566234	0.1000002	0.000100985	283.566234
3.3995	-4.81E-11	283.59075	0.1	0.000100376	283.59075
3.19952	-6.96E-11	283.615361	0.1	9.9762E-05	283.615361
2.99953	-7.5E-11	283.639875	0.1	9.9152E-05	283.639875
2.79948	-9.76E-11	283.664394	0.0999999	9.8539E-05	283.664394
2.59953	-9.58E-11	283.688916	0.1000001	9.793E-05	283.688916
2.3995	-9.33E-11	283.713429	0.1000001	9.732E-05	283.713429
2.1995	-1.117E-10	283.73796	0.0999999	9.6712E-05	283.73796
1.99951	-1.129E-10	283.762491	0.0999998	9.6105E-05	283.762491
1.7995	-1.136E-10	283.787013	0.0999999	9.5499E-05	283.787013
1.59953	-1.291E-10	283.811532	0.1000002	9.4896E-05	283.811532
1.39951	-1.318E-10	283.836034	0.1000002	9.4294E-05	283.836034
1.19951	-8.41E-11	283.896111	0.0999999	9.3699E-05	283.896111
0.9995	-1.161E-10	283.920656	0.0999999	9.31E-05	283.920656
0.79948	-1.442E-10	283.94526	0.1000001	9.2505E-05	283.94526
0.59948	-1.44E-10	283.969782	0.1000001	9.1911E-05	283.969782
0.3995	-1.469E-10	283.994343	0.0999999	9.132E-05	283.994343
0.1995	-1.573E-10	284.018926	0.0999999	9.0733E-05	284.018926
-0.00052	-1.551E-10	284.043437	0.0999998	9.0151E-05	284.043437
-0.2005	-1.565E-10	284.068002	0.1	8.9573E-05	284.068002
-0.4005	-1.809E-10	284.092616	0.1	8.9007E-05	284.092616
-0.60049	-1.502E-10	284.120458	0.1000045	8.83687E-05	284.120458
-0.8005	-1.875E-10	284.144963	0.1000043	8.78247E-05	284.144963
-1.00049	-1.794E-10	284.169469	0.1000049	8.72934E-05	284.169469
-1.20048	-1.759E-10	284.194003	0.1000059	8.67715E-05	284.194003
-1.40048	-2.003E-10	284.218516	0.1000044	8.62546E-05	284.218516
-1.60047	-2.006E-10	284.243028	0.1000057	8.57413E-05	284.243028
-1.8005	-1.871E-10	284.267539	0.1000043	8.52277E-05	284.267539
-2.00048	-2.131E-10	284.29214	0.1000055	8.47165E-05	284.29214
-2.20049	-2.128E-10	284.316689	0.1000045	8.4204E-05	284.316689
-2.40048	-2.065E-10	284.341198	0.1000055	8.36914E-05	284.341198
-2.6005	-1.524E-10	284.400371	0.1000042	8.31791E-05	284.400371
-2.80048	-2.123E-10	284.425063	0.1000047	8.26644E-05	284.425063
-3.0005	-1.995E-10	284.449579	0.100005	8.21495E-05	284.449579
-3.20048	-2.152E-10	284.474112	0.1000055	8.16332E-05	284.474112
-3.4005	-2.261E-10	284.498665	0.1000055	8.1116E-05	284.498665
-3.60049	-2.19E-10	284.523222	0.1000054	8.05978E-05	284.523222
-3.80049	-2.317E-10	284.54774	0.100005	8.00773E-05	284.54774
-4.00049	-2.352E-10	284.572299	0.1000041	7.95569E-05	284.572299
-4.20049	-2.479E-10	284.596814	0.1000061	7.90355E-05	284.596814
-4.40049	-2.376E-10	284.621422	0.1000043	7.85127E-05	284.621422
-4.60048	-2.403E-10	284.645943	0.1000049	7.79883E-05	284.645943
-4.80047	-2.645E-10	284.670518	0.1000049	7.7462E-05	284.670518
-5.00048	-2.56E-10	284.695032	0.1000056	7.69348E-05	284.695032
-5.20049	-2.374E-10	284.71954	0.1000055	7.6406E-05	284.71954
-5.4005	-2.659E-10	284.744078	0.1000052	7.58762E-05	284.744078
-5.60049	-2.79E-10	284.768581	0.1000057	7.53424E-05	284.768581
-5.80049	-2.582E-10	284.79312	0.1000044	7.4809E-05	284.79312
-6.00048	-2.737E-10	284.817639	0.1000058	7.42735E-05	284.817639
-6.2005	-2.736E-10	284.842169	0.1000064	7.37345E-05	284.842169
-6.40048	-2.209E-10	284.899549	0.100005	7.31967E-05	284.899549
-6.6005	-2.604E-10	284.924258	0.1000053	7.26564E-05	284.924258
-6.80047	-2.776E-10	284.948867	0.100006	7.21122E-05	284.948867
-7.00049	-1.134E-10	284.973387	0.1000064	7.15673E-05	284.973387
-7.20048	-2.526E-10	284.998148	0.1000057	7.10201E-05	284.998148
-7.4005	-2.791E-10	285.022694	0.1000054	7.04715E-05	285.022694
-7.60048	-2.74E-10	285.047206	0.100006	6.99214E-05	285.047206
-7.80047	-2.824E-10	285.071761	0.1000063	6.9367E-05	285.071761
-8.00047	-2.916E-10	285.096289	0.1000067	6.88127E-05	285.096289
-8.20048	-2.881E-10	285.120822	0.1000055	6.82552E-05	285.120822
-8.40046	-2.955E-10	285.145332	0.1000061	6.76966E-05	285.145332
-8.6005	-2.988E-10	285.169866	0.1000057	6.71349E-05	285.169866
-8.8005	-3.073E-10	285.194379	0.1000062	6.65727E-05	285.194379
-9.00046	-2.989E-10	285.218894	0.1000065	6.60075E-05	285.218894
-9.20047	-3.026E-10	285.243398	0.1000061	6.54408E-05	285.243398
-9.40048	-3.888E-10	285.267929	0.1000052	6.48714E-05	285.267929
-9.60051	-3.36E-10	285.292506	0.1000062	6.43023E-05	285.292506
-9.80049	-3.095E-10	285.317031	0.1000063	6.37334E-05	285.317031
-10.00047	-3.292E-10	285.341541	0.1000058	6.31595E-05	285.341541
-10.20048	-2.682E-10	285.401007	0.1000069	6.25933E-05	285.401007
-10.4005	-3.025E-10	285.425526	0.1000052	6.20162E-05	285.425526
-10.6005	-3.185E-10	285.450057	0.1000062	6.14376E-05	285.450057
-10.80049	-3.338E-10	285.474568	0.1000066	6.08568E-05	285.474568
-11.00049	-3.124E-10	285.499152	0.1000064	6.02762E-05	285.499152
-11.20049	-3.266E-10	285.523723	0.1000059	5.96916E-05	285.523723
-11.40046	-3.478E-10	285.548262	0.1000061	5.91049E-05	285.548262
-11.60049	-3.336E-10	285.572775	0.1000049	5.8516E-05	285.572775
-11.80048	-3.437E-10	285.597318	0.1000059	5.79266E-05	285.597318
-12.00048	-3.509E-10	285.621928	0.1000053	5.73341E-05	285.621928
#scan	iMeasureCycle=3	iMux=0	time=319.915	N=222	LocalTime=22/06/2023 03:14:09
#VGate(V)	IGate(A)	time(s)	VDrain(V)	IDrain(A)	time(s)
-12.0005	-7.59E-11	319.922627	0.1000043	5.73904E-05	319.922627
-11.80048	-1.21E-11	319.947494	0.1000058	5.7986E-05	319.947494
-11.60048	-8.1E-12	319.973076	0.1000057	5.85784E-05	319.973076
-11.40051	3.33E-11	319.997644	0.1000054	5.91684E-05	319.997644
-11.20049	5.28E-11	320.022183	0.1000048	5.97576E-05	320.022183
-11.00048	5.61E-11	320.046717	0.1000064	6.03449E-05	320.046717
-10.80047	6.17E-11	320.071274	0.1000071	6.09294E-05	320.071274
-10.60051	8.55E-11	320.095771	0.1000062	6.15124E-05	320.095771
-10.4005	7.88E-11	320.120296	0.1000053	6.20934E-05	320.120296
-10.20048	9.82E-11	320.144852	0.1000053	6.26729E-05	320.144852
-10.0005	1.197E-10	320.169377	0.100006	6.32506E-05	320.169377
-9.80049	1.031E-10	320.193896	0.1000058	6.38276E-05	320.193896
-9.6005	2.136E-10	320.218419	0.100006	6.44017E-05	320.218419
-9.40049	1.462E-10	320.242942	0.1000065	6.49738E-05	320.242942
-9.2005	1.47E-10	320.267472	0.100007	6.55444E-05	320.267472
-9.00049	1.436E-10	320.292003	0.100007	6.61097E-05	320.292003
-8.80047	1.365E-10	320.31652	0.1000067	6.66732E-05	320.31652
-8.60047	1.517E-10	320.341139	0.1000068	6.7232E-05	320.341139
-8.4005	1.586E-10	320.365677	0.1000054	6.77885E-05	320.365677
-8.20051	1.606E-10	320.390201	0.1000061	6.83464E-05	320.390201
-8.00049	1.745E-10	320.414735	0.1000069	6.89005E-05	320.414735
-7.80049	3.89E-11	320.43925	0.1000061	6.94528E-05	320.43925
-7.6005	1.388E-10	320.485471	0.1000059	7.00005E-05	320.485471
-7.40051	1.613E-10	320.510011	0.1000057	7.05506E-05	320.510011
-7.20048	1.568E-10	320.534532	0.1000049	7.10981E-05	320.534532
-7.0005	1.757E-10	320.559063	0.1000062	7.16436E-05	320.559063
-6.80046	1.82E-10	320.583638	0.1000057	7.21886E-05	320.583638
-6.60049	1.914E-10	320.608177	0.1000053	7.2731E-05	320.608177
-6.40049	1.856E-10	320.632724	0.1000047	7.3272E-05	320.632724
-6.20049	1.936E-10	320.657269	0.1000059	7.38106E-05	320.657269
-6.0005	2.01E-10	320.681838	0.1000058	7.43472E-05	320.681838
-5.8005	1.982E-10	320.706364	0.1000059	7.48831E-05	320.706364
-5.60047	2.219E-10	320.730979	0.1000055	7.54151E-05	320.730979
-5.40049	2.168E-10	320.755453	0.1000048	7.59473E-05	320.755453
-5.20049	2.191E-10	320.779962	0.100005	7.64784E-05	320.779962
-5.00048	2.189E-10	320.804475	0.1000045	7.70077E-05	320.804475
-4.80049	2.559E-10	320.828996	0.1000059	7.75353E-05	320.828996
-4.60052	2.212E-10	320.853522	0.1000055	7.80605E-05	320.853522
-4.4005	2.24E-10	320.878037	0.1000048	7.85841E-05	320.878037
-4.20048	2.452E-10	320.902545	0.1000046	7.9106E-05	320.902545
-4.00049	2.393E-10	320.927062	0.1000058	7.96297E-05	320.927062
-3.80049	1.754E-10	320.987037	0.1000055	8.01457E-05	320.987037
-3.60048	2.319E-10	321.011668	0.1000059	8.06651E-05	321.011668
-3.4005	2.363E-10	321.036199	0.1000053	8.11845E-05	321.036199
-3.20049	2.292E-10	321.06073	0.1000048	8.17011E-05	321.06073
-3.0005	2.533E-10	321.085291	0.1000059	8.22185E-05	321.085291
-2.80049	2.668E-10	321.109804	0.1000058	8.2735E-05	321.109804
-2.6005	2.521E-10	321.134345	0.1000047	8.32495E-05	321.134345
-2.40051	2.437E-10	321.158887	0.1000045	8.37634E-05	321.158887
-2.20051	2.794E-10	321.183399	0.1000042	8.42777E-05	321.183399
-2.00048	2.848E-10	321.207908	0.1000051	8.47906E-05	321.207908
-1.80051	2.645E-10	321.232432	0.1000051	8.53028E-05	321.232432
-1.60048	2.685E-10	321.256954	0.100004	8.58172E-05	321.256954
-1.40051	2.899E-10	321.281475	0.1000047	8.63328E-05	321.281475
-1.20049	2.828E-10	321.305989	0.1000046	8.68545E-05	321.305989
-1.00051	2.765E-10	321.330498	0.1000052	8.73832E-05	321.330498
-0.80051	2.961E-10	321.355096	0.1000046	8.79206E-05	321.355096
-0.60049	2.865E-10	321.37961	0.1000043	8.84716E-05	321.37961
-0.40049	2.932E-10	321.404124	0.100004	8.90315E-05	321.404124
-0.2005	3.023E-10	321.42866	0.1000045	8.96029E-05	321.42866
-0.00049	2.572E-10	321.488585	0.1000045	9.01762E-05	321.488585
0.19948	2.731E-10	321.513132	0.1000043	9.07616E-05	321.513132
0.39952	2.949E-10	321.537591	0.1000039	9.13484E-05	321.537591
0.59949	3.039E-10	321.562152	0.1000043	9.19377E-05	321.562152
0.7995	3.033E-10	321.58672	0.100005	9.25323E-05	321.58672
0.99951	2.994E-10	321.611242	0.1000039	9.31252E-05	321.611242
1.1995	4.383E-10	321.635776	0.1000046	9.37215E-05	321.635776
1.39952	3.307E-10	321.660296	0.1000043	9.43209E-05	321.660296
1.59951	3.34E-10	321.684893	0.1000042	9.49199E-05	321.684893
1.7995	3.371E-10	321.709415	0.100005	9.55231E-05	321.709415
1.9995	3.397E-10	321.733931	0.1000052	9.61263E-05	321.733931
2.19949	3.377E-10	321.758448	0.1000042	9.67317E-05	321.758448
2.39949	3.357E-10	321.782945	0.1000036	9.73383E-05	321.782945
2.5995	3.587E-10	321.807444	0.1000039	9.79443E-05	321.807444
2.79947	2.213E-10	321.83196	0.1000039	9.85535E-05	321.83196
2.99949	3.149E-10	321.856483	0.1000036	9.91618E-05	321.856483
3.1995	3.444E-10	321.880992	0.1000041	9.97706E-05	321.880992
3.39947	3.533E-10	321.905518	0.1000037	0.0001003797	321.905518
3.5995	3.487E-10	321.930129	0.1000042	0.0001009882	321.930129
3.7995	2.988E-10	321.990299	0.1000037	0.0001015894	321.990299
3.99951	3.464E-10	322.01489	0.1000038	0.0001021954	322.01489
4.19951	3.385E-10	322.039434	0.1000033	0.0001028006	322.039434
4.39948	3.424E-10	322.063968	0.1000038	0.0001034032	322.063968
4.59949	3.779E-10	322.088547	0.1000039	0.0001040047	322.088547
4.79949	3.618E-10	322.113149	0.1000041	0.0001046019	322.113149
4.9995	3.532E-10	322.142857	0.1000002	0.000105277	322.142857
5.19949	3.744E-10	322.167384	0.1	0.000105865	322.167384
5.39951	3.579E-10	322.191919	0.0999999	0.000106454	322.191919
5.59951	3.769E-10	322.216442	0.0999998	0.000107037	322.216442
5.7995	3.917E-10	322.240956	0.1000002	0.000107618	322.240956
5.99948	3.825E-10	322.265467	0.1000001	0.000108195	322.265467
6.19951	3.777E-10	322.289984	0.1000001	0.000108771	322.289984
6.39952	3.895E-10	322.314515	0.1000001	0.000109343	322.314515
6.59948	3.931E-10	322.339204	0.1	0.000109912	322.339204
6.7995	3.937E-10	322.363754	0.0999999	0.000110475	322.363754
6.99949	4.023E-10	322.388273	0.1	0.000111036	322.388273
7.19947	4.115E-10	322.412809	0.0999999	0.000111594	322.412809
7.39949	4.027E-10	322.437314	0.0999999	0.000112144	322.437314
7.59948	3.601E-10	322.494639	0.1000002	0.000112691	322.494639
7.7995	3.741E-10	322.519172	0.1	0.000113242	322.519172
7.99948	3.976E-10	322.543694	0.1000001	0.000113788	322.543694
8.19949	4.111E-10	322.56827	0.0999998	0.000114329	322.56827
8.3995	4.034E-10	322.592829	0.0999999	0.000114865	322.592829
8.5995	4.079E-10	322.617347	0.1000001	0.000115396	322.617347
8.79953	4.128E-10	322.641892	0.1000003	0.000115929	322.641892
8.9995	4.352E-10	322.666413	0.1	0.000116455	322.666413
9.19947	4.271E-10	322.69102	0.0999998	0.000116982	322.69102
9.3995	4.096E-10	322.715529	0.0999999	0.000117508	322.715529
9.5995	4.429E-10	322.740061	0.0999998	0.00011803	322.740061
9.79949	4.37E-10	322.764579	0.0999999	0.00011855	322.764579
9.99948	4.259E-10	322.789106	0.1000001	0.000119067	322.789106
9.9995	3.975E-10	322.812452	0.1000002	0.000119065	322.812452
9.79952	2.942E-10	322.836982	0.0999999	0.00011855	322.836982
9.59951	2.368E-10	322.861508	0.1000002	0.000118031	322.861508
9.3995	2.25E-10	322.886019	0.0999998	0.000117511	322.886019
9.19949	2.029E-10	322.910529	0.0999997	0.000116986	322.910529
8.99949	1.679E-10	322.935044	0.1	0.000116463	322.935044
8.79951	2.069E-10	322.993606	0.1000001	0.000115927	322.993606
8.59951	1.498E-10	323.018207	0.1	0.000115387	323.018207
8.39952	2.633E-10	323.042799	0.1	0.000114845	323.042799
8.19949	1.377E-10	323.067356	0.0999998	0.000114297	323.067356
7.99952	1.182E-10	323.091921	0.1000001	0.000113749	323.091921
7.79952	8.42E-11	323.116447	0.1	0.000113197	323.116447
7.59948	7.27E-11	323.140943	0.1	0.000112642	323.140943
7.39952	7.78E-11	323.165498	0.0999999	0.000112086	323.165498
7.19951	6.48E-11	323.190003	0.0999999	0.000111523	323.190003
6.9995	5.04E-11	323.214526	0.1000002	0.000110961	323.214526
6.79951	-3.24E-11	323.23905	0.1000001	0.000110394	323.23905
6.59951	9.4E-12	323.263578	0.1000001	0.000109823	323.263578
6.39951	1.63E-11	323.28809	0.1000001	0.000109249	323.28809
6.19949	-7.8E-12	323.312621	0.0999999	0.000108672	323.312621
5.9995	1.41E-11	323.337128	0.1	0.000108093	323.337128
5.7995	-1.7E-12	323.361728	0.0999999	0.00010751	323.361728
5.5995	-2.59E-11	323.386241	0.1	0.000106924	323.386241
5.39949	-7.8E-12	323.410772	0.1000003	0.000106334	323.410772
5.1995	-1.89E-11	323.435281	0.1	0.00010574	323.435281
4.99948	2.44E-11	323.490934	0.0999997	0.000105144	323.490934
4.7995	-2.75E-11	323.515464	0.1000001	0.000104546	323.515464
4.59951	-4.03E-11	323.540003	0.1	0.000103945	323.540003
4.3995	-4.21E-11	323.564527	0.0999998	0.000103338	323.564527
4.19951	-5.12E-11	323.589137	0.1000001	0.000102734	323.589137
3.9995	-5.73E-11	323.613644	0.0999999	0.000102124	323.613644
3.7995	-8.47E-11	323.638444	0.1000001	0.000101515	323.638444
3.59951	-5.32E-11	323.663066	0.1000002	0.000100905	323.663066
3.39948	-6.42E-11	323.687654	0.0999999	0.000100294	323.687654
3.19951	-9.48E-11	323.712202	0.1	9.9682E-05	323.712202
2.9995	-9.13E-11	323.736726	0.1	9.907E-05	323.736726
2.7995	-8.31E-11	323.761322	0.1	9.8458E-05	323.761322
2.5995	-1.068E-10	323.785828	0.0999998	9.7845E-05	323.785828
2.39952	-9.83E-11	323.810349	0.0999999	9.7236E-05	323.810349
2.19951	-1.078E-10	323.834879	0.0999997	9.6628E-05	323.834879
1.9995	-1.147E-10	323.859411	0.1	9.6021E-05	323.859411
1.79951	-1.268E-10	323.883936	0.0999998	9.5415E-05	323.883936
1.5995	-1.239E-10	323.908459	0.1000001	9.481E-05	323.908459
1.3995	-1.241E-10	323.932974	0.1000002	9.4209E-05	323.932974
1.1995	-6.64E-11	323.994946	0.1000001	9.3613E-05	323.994946
0.99951	-1.261E-10	324.019596	0.1	9.3017E-05	324.019596
0.79947	-1.291E-10	324.044115	0.1	9.2419E-05	324.044115
0.59951	-1.083E-10	324.068651	0.0999999	9.1827E-05	324.068651
0.39949	-1.471E-10	324.093223	0.1	9.1235E-05	324.093223
0.1995	-1.712E-10	324.117804	0.1	9.0649E-05	324.117804
-0.00048	-1.456E-10	324.142329	0.0999999	9.0067E-05	324.142329
-0.2005	-1.603E-10	324.166837	0.0999999	8.9489E-05	324.166837
-0.40051	-1.716E-10	324.19135	0.0999998	8.8924E-05	324.19135
-0.60049	-1.759E-10	324.215861	0.1000001	8.8365E-05	324.215861
-0.8005	-1.914E-10	324.240376	0.0999998	8.7822E-05	324.240376
-1.00048	-1.757E-10	324.264903	0.0999998	8.729E-05	324.264903
-1.20048	-1.736E-10	324.292763	0.1000049	8.6689E-05	324.292763
-1.40049	-2.131E-10	324.317274	0.1000046	8.6172E-05	324.317274
-1.60048	-1.856E-10	324.341977	0.1000045	8.56587E-05	324.341977
-1.80051	-1.934E-10	324.366618	0.1000046	8.51456E-05	324.366618
-2.00048	-2.033E-10	324.391127	0.100006	8.46354E-05	324.391127
-2.20048	-2.169E-10	324.415664	0.1000053	8.41215E-05	324.415664
-2.40051	-1.932E-10	324.440176	0.1000046	8.36092E-05	324.440176
-2.60047	-1.466E-10	324.501301	0.1000056	8.30973E-05	324.501301
-2.8005	-1.901E-10	324.526012	0.1000055	8.25832E-05	324.526012
-3.00047	-1.927E-10	324.550537	0.1000061	8.20676E-05	324.550537
-3.20049	-2.06E-10	324.575127	0.1000048	8.15491E-05	324.575127
-3.40048	-2.26E-10	324.599692	0.100005	8.10333E-05	324.599692
-3.60049	-2.282E-10	324.624213	0.1000058	8.05158E-05	324.624213
-3.80048	-4.502E-10	324.648744	0.1000058	7.99956E-05	324.648744
-4.00049	-2.544E-10	324.67326	0.1000055	7.94746E-05	324.67326
-4.2005	-2.525E-10	324.697953	0.1000052	7.89531E-05	324.697953
-4.40049	-2.41E-10	324.722487	0.1000049	7.84299E-05	324.722487
-4.60048	-2.428E-10	324.747014	0.1000045	7.7905E-05	324.747014
-4.80049	-2.608E-10	324.771546	0.1000054	7.73785E-05	324.771546
-5.00049	-2.654E-10	324.796081	0.1000053	7.68517E-05	324.796081
-5.20047	-2.532E-10	324.820588	0.1000055	7.63225E-05	324.820588
-5.40047	-2.651E-10	324.84512	0.1000061	7.57919E-05	324.84512
-5.60049	-2.672E-10	324.869645	0.1000055	7.52595E-05	324.869645
-5.8005	-2.609E-10	324.89417	0.1000043	7.47253E-05	324.89417
-6.00049	-2.77E-10	324.918686	0.1000054	7.41885E-05	324.918686
-6.20048	-2.793E-10	324.943214	0.100006	7.3652E-05	324.943214
-6.40049	-2.238E-10	325.00015	0.1000044	7.31128E-05	325.00015
-6.60049	-2.563E-10	325.024828	0.1000061	7.25717E-05	325.024828
-6.80049	-2.699E-10	325.049378	0.1000057	7.20282E-05	325.049378
-7.0005	-2.631E-10	325.07409	0.1000052	7.14815E-05	325.07409
-7.20049	-2.865E-10	325.098676	0.100005	7.09342E-05	325.098676
-7.40047	-2.873E-10	325.123198	0.1000059	7.03857E-05	325.123198
-7.60049	-2.771E-10	325.147739	0.1000061	6.98345E-05	325.147739
-7.80048	-2.892E-10	325.172277	0.1000054	6.92818E-05	325.172277
-8.00046	-2.979E-10	325.196802	0.1000055	6.87264E-05	325.196802
-8.20047	-3.086E-10	325.221313	0.1000069	6.81691E-05	325.221313
-8.4005	-2.924E-10	325.245817	0.1000056	6.76101E-05	325.245817
-8.60049	-2.914E-10	325.270328	0.1000062	6.70487E-05	325.270328
-8.80048	-3.178E-10	325.29484	0.100006	6.64857E-05	325.29484
-9.00048	-3.186E-10	325.319369	0.1000055	6.59195E-05	325.319369
-9.20047	-3.096E-10	325.343903	0.1000049	6.53546E-05	325.343903
-9.40049	-3.235E-10	325.368491	0.1000067	6.47856E-05	325.368491
-9.60052	-3.219E-10	325.39302	0.1000062	6.42153E-05	325.39302
-9.80047	-3.207E-10	325.41755	0.1000066	6.3646E-05	325.41755
-10.00049	-3.311E-10	325.442049	0.1000047	6.30715E-05	325.442049
-10.20049	-2.779E-10	325.501811	0.100007	6.25062E-05	325.501811
-10.40049	-2.92E-10	325.526335	0.1000057	6.19293E-05	325.526335
-10.6005	-3.14E-10	325.550869	0.1000071	6.13499E-05	325.550869
-10.80047	-3.461E-10	325.575579	0.1000056	6.07698E-05	325.575579
-11.00046	-3.155E-10	325.600171	0.1000053	6.01868E-05	325.600171
-11.2005	-3.267E-10	325.624677	0.1000056	5.96018E-05	325.624677
-11.40049	-3.392E-10	325.649223	0.100006	5.90149E-05	325.649223
-11.60049	-3.534E-10	325.673738	0.1000061	5.84272E-05	325.673738
-11.80048	-3.445E-10	325.698339	0.1000059	5.78375E-05	325.698339
-12.00047	-3.447E-10	325.722863	0.1000067	5.72454E-05	325.722863
