#scan	iMeasureCycle=1	iMuxPin=0	time=0.019	N=401	LocalTime=06/03/2023 10:37:49
#VGate(V)	IGate(A)	time(s)	VDrain(V)	IDrain(A)	time(s)
-10.0009	-1.6377E-10	0.019	0.0999842	6.80447E-11	0.019
-9.90089	3.8228E-10	0.081096	0.0999845	3.02196E-11	0.081146
-9.80113	5.66614E-10	0.102778	0.0999847	2.22921E-11	0.10283
-9.70108	1.097E-09	0.12436	0.0999851	1.64747E-11	0.12443
-9.60109	1.31491E-09	0.145917	0.0999833	1.20521E-11	0.145996
-9.50101	1.33835E-09	0.16747	0.0999841	7.4625E-12	0.167548
-9.40098	1.32827E-09	0.189139	0.0999847	4.04119E-12	0.189203
-9.30129	1.32766E-09	0.210703	0.0999845	6.19888E-13	0.210776
-9.20117	1.32896E-09	0.232264	0.0999847	-2.24113E-12	0.232338
-9.10114	1.33049E-09	0.253821	0.0999856	-4.8399E-12	0.253898
-9.00105	1.3213E-09	0.275475	0.099984	-7.14064E-12	0.275533
-8.90099	1.33088E-09	0.297052	0.099984	-9.34601E-12	0.297126
-8.80129	1.33092E-09	0.31863	0.099986	-1.10149E-11	0.318704
-8.7012	1.33054E-09	0.340247	0.0999836	-1.24335E-11	0.34031
-8.60117	1.33635E-09	0.361877	0.0999848	-1.37568E-11	0.361942
-8.50108	1.34411E-09	0.383445	0.0999848	-1.48416E-11	0.38352
-8.40132	1.34008E-09	0.405011	0.0999849	-1.5533E-11	0.405085
-8.30128	1.34305E-09	0.426564	0.0999843	-1.62005E-11	0.426639
-8.20113	1.33129E-09	0.448228	0.0999843	-1.67251E-11	0.448291
-8.10106	1.33488E-09	0.469793	0.0999855	-1.73807E-11	0.469867
-8.00102	1.33067E-09	0.491383	0.0999858	-1.78099E-11	0.491456
-7.90123	1.32883E-09	0.512931	0.099989	-1.85132E-11	0.513009
-7.8012	1.32196E-09	0.534586	0.0999872	-1.88828E-11	0.534646
-7.70112	1.33153E-09	0.556167	0.0999865	-1.96934E-11	0.556241
-7.60107	1.33497E-09	0.577737	0.0999868	-1.99437E-11	0.57781
-7.50108	1.33153E-09	0.59936	0.0999866	-2.04802E-11	0.599425
-7.40124	1.33485E-09	0.620984	0.0999879	-2.05517E-11	0.621054
-7.30123	1.34591E-09	0.642535	0.0999851	-2.0659E-11	0.642613
-7.20112	1.34716E-09	0.664099	0.0999875	-2.08378E-11	0.664177
-7.10105	1.34754E-09	0.685638	0.0999878	-2.08855E-11	0.685717
-7.00133	1.33053E-09	0.707305	0.0999876	-2.08378E-11	0.707368
-6.90118	1.33675E-09	0.728888	0.0999852	-2.07186E-11	0.728959
-6.80113	1.33563E-09	0.75045	0.0999866	-2.09093E-11	0.750526
-6.70111	1.33591E-09	0.771978	0.0999838	-2.10881E-11	0.772058
-6.60098	1.3248E-09	0.793635	0.0999846	-2.10166E-11	0.7937
-6.50125	1.32848E-09	0.815198	0.0999835	-2.14458E-11	0.815277
-6.40121	1.33353E-09	0.836773	0.099984	-2.17676E-11	0.836839
-6.30111	1.33014E-09	0.858435	0.0999862	-2.18511E-11	0.858495
-6.20105	1.34214E-09	0.879997	0.099986	-2.20656E-11	0.880073
-6.10097	1.34902E-09	0.901531	0.099986	-2.22802E-11	0.901612
-6.00126	1.34348E-09	0.923099	0.099987	-2.19822E-11	0.923177
-5.90117	1.33879E-09	0.944752	0.0999875	-2.16484E-11	0.944811
-5.80102	1.34395E-09	0.96632	0.099989	-2.18272E-11	0.966395
-5.70105	1.3419E-09	0.987868	0.099989	-2.17199E-11	0.987948
-5.60121	1.33466E-09	1.009432	0.0999903	-2.16007E-11	1.009508
-5.50115	1.32555E-09	1.03111	0.0999896	-2.14219E-11	1.03117
-5.40112	1.33064E-09	1.05268	0.0999919	-2.17795E-11	1.05275
-5.301	1.33637E-09	1.07421	0.0999913	-2.1863E-11	1.07429
-5.20098	1.33051E-09	1.09581	0.0999901	-2.19584E-11	1.09588
-5.10123	1.32661E-09	1.11745	0.0999907	-2.22802E-11	1.11752
-5.00115	1.3425E-09	1.139	0.0999897	-2.23875E-11	1.13908
-4.90108	1.34628E-09	1.16056	0.0999902	-2.26378E-11	1.16064
-4.80099	1.34808E-09	1.18212	0.0999903	-2.24948E-11	1.1822
-4.70088	1.33337E-09	1.20382	0.0999899	-2.21252E-11	1.20383
-4.60115	1.34031E-09	1.22539	0.0999913	-2.21491E-11	1.22546
-4.50107	1.34306E-09	1.24696	0.0999905	-2.20895E-11	1.24704
-4.40101	1.34238E-09	1.2685	0.099991	-2.19464E-11	1.26859
-4.30086	1.33044E-09	1.29016	0.0999906	-2.17438E-11	1.29023
-4.20111	1.3291E-09	1.31173	0.0999896	-2.17795E-11	1.31179
-4.10105	1.33059E-09	1.33331	0.0999934	-2.19822E-11	1.33338
-4.00091	1.32346E-09	1.35494	0.0999939	-2.19941E-11	1.355
-3.90091	1.33179E-09	1.37656	0.0999943	-2.2459E-11	1.37663
-3.80081	1.3409E-09	1.39813	0.0999959	-2.25663E-11	1.39821
-3.70105	1.33969E-09	1.41971	0.0999962	-2.26498E-11	1.41977
-3.60098	1.35002E-09	1.44124	0.0999964	-2.23398E-11	1.44132
-3.5009	1.34008E-09	1.46291	0.0999955	-2.24829E-11	1.46298
-3.40074	1.34755E-09	1.48448	0.0999956	-2.21252E-11	1.48456
-3.30073	1.3451E-09	1.50607	0.0999954	-2.19464E-11	1.50614
-3.20094	1.34202E-09	1.5276	0.0999964	-2.18272E-11	1.52768
-3.10086	1.33022E-09	1.54927	0.0999944	-2.1553E-11	1.54933
-3.00073	1.33413E-09	1.57084	0.0999948	-2.17676E-11	1.57092
-2.90067	1.33337E-09	1.59241	0.0999965	-2.19941E-11	1.59248
-2.80095	1.32256E-09	1.61406	0.0999958	-2.21014E-11	1.61413
-2.70082	1.33454E-09	1.63564	0.0999968	-2.24233E-11	1.63572
-2.60075	1.34124E-09	1.65719	0.0999965	-2.2459E-11	1.65726
-2.50068	1.34418E-09	1.67874	0.099997	-2.28167E-11	1.67882
-2.40058	1.33975E-09	1.7004	0.0999975	-2.26021E-11	1.70047
-2.30085	1.34422E-09	1.72197	0.0999992	-2.25544E-11	1.72204
-2.20071	1.35131E-09	1.7435	0.0999976	-2.26378E-11	1.74358
-2.10066	1.34603E-09	1.76508	0.0999987	-2.17557E-11	1.76516
-2.00008	1.24098E-09	1.78741	0.0999979	-2.06471E-11	1.78747
-1.90009	1.32916E-09	1.80896	0.0999967	-2.20299E-11	1.80903
-1.80009	1.3407E-09	1.83046	0.0999967	-2.17438E-11	1.83054
-1.70013	1.3389E-09	1.85196	0.099995	-2.19822E-11	1.85204
-1.60013	1.32885E-09	1.87358	0.0999983	-2.21848E-11	1.87363
-1.50013	1.33872E-09	1.8951	0.0999963	-2.24829E-11	1.89517
-1.40016	1.34503E-09	1.91658	0.0999969	-2.27332E-11	1.91667
-1.30016	1.34628E-09	1.93811	0.0999956	-2.25544E-11	1.93818
-1.20015	1.34027E-09	1.95972	0.0999956	-2.2614E-11	1.95978
-1.10018	1.34988E-09	1.98124	0.0999957	-2.26378E-11	1.98131
-1.00017	1.35086E-09	2.00277	0.0999965	-2.30551E-11	2.00284
-0.900152	1.35621E-09	2.02424	0.0999967	-2.2614E-11	2.02432
-0.800175	1.34223E-09	2.04584	0.0999964	-2.21848E-11	2.04591
-0.700165	1.34602E-09	2.06735	0.0999968	-2.21252E-11	2.06742
-0.600139	1.34342E-09	2.08886	0.0999961	-2.19345E-11	2.08894
-0.500161	1.32929E-09	2.11044	0.0999961	-2.21491E-11	2.11051
-0.400134	1.3315E-09	2.13203	0.0999958	-2.23041E-11	2.13209
-0.300103	1.33969E-09	2.15353	0.0999988	-2.23517E-11	2.15361
-0.200027	1.23738E-09	2.17572	0.0999978	-2.13027E-11	2.17579
-0.100042	1.33663E-09	2.19722	0.0999961	-2.30789E-11	2.1973
-3.22342E-05	1.34007E-09	2.21884	0.0999961	-2.26259E-11	2.2189
0.100004	1.34581E-09	2.24053	0.0999932	-2.27213E-11	2.24061
0.199992	1.35286E-09	2.26205	0.0999944	-2.26974E-11	2.26213
0.300008	1.33365E-09	2.28421	0.0999942	-2.23756E-11	2.28427
0.400041	1.33829E-09	2.30585	0.0999957	-2.22325E-11	2.30591
0.500036	1.34602E-09	2.32736	0.0999966	-2.22802E-11	2.32743
0.600047	1.34207E-09	2.34889	0.0999987	-2.21252E-11	2.34896
0.700076	1.33408E-09	2.37048	0.0999952	-2.2459E-11	2.37055
0.800055	1.33977E-09	2.392	0.0999949	-2.26855E-11	2.39208
0.900072	1.34199E-09	2.41351	0.0999967	-2.26855E-11	2.41359
1.00005	1.34432E-09	2.43502	0.0999973	-2.31266E-11	2.4351
1.10007	1.33977E-09	2.45662	0.0999987	-2.33889E-11	2.45668
1.20004	1.34845E-09	2.47814	0.099999	-2.32816E-11	2.47821
1.30005	1.35499E-09	2.49963	0.0999978	-2.34485E-11	2.49971
1.40005	1.35485E-09	2.52115	0.0999975	-2.36154E-11	2.52123
1.50002	1.3469E-09	2.54277	0.0999984	-2.35081E-11	2.54283
1.60002	1.35597E-09	2.56427	0.0999985	-2.33531E-11	2.56435
1.69999	1.35286E-09	2.58577	0.099996	-2.33889E-11	2.58584
1.79998	1.349E-09	2.60729	0.0999969	-2.3222E-11	2.60737
1.89994	1.33767E-09	2.62889	0.0999969	-2.28524E-11	2.62895
1.99994	1.34227E-09	2.65042	0.0999976	-2.31028E-11	2.65049
2.10009	1.31141E-09	2.67304	0.0999978	-2.29478E-11	2.67311
2.20018	1.33833E-09	2.69462	0.0999973	-2.31743E-11	2.69469
2.30028	1.33591E-09	2.71629	0.0999957	-2.30193E-11	2.71636
2.40004	1.34441E-09	2.73786	0.0999951	-2.25067E-11	2.73793
2.50013	1.35443E-09	2.75942	0.099995	-2.20418E-11	2.75949
2.6002	1.35604E-09	2.78097	0.0999966	-2.08616E-11	2.78104
2.70021	1.3484E-09	2.80262	0.0999941	-1.91808E-11	2.80268
2.80036	1.3549E-09	2.82419	0.0999956	-1.61886E-11	2.82426
2.90009	1.34794E-09	2.84576	0.0999946	-1.1456E-11	2.84583
3.00016	1.34135E-09	2.86741	0.0999938	-3.21865E-12	2.86747
3.10033	1.34487E-09	2.88897	0.0999939	1.26243E-11	2.88905
3.2004	1.34596E-09	2.91051	0.0999942	4.57168E-11	2.91059
3.30048	1.34325E-09	2.93207	0.099993	1.18899E-10	2.93215
3.40025	1.33061E-09	2.95373	0.0999914	2.90048E-10	2.95379
3.50033	1.34398E-09	2.9753	0.0999917	8.60512E-10	2.97538
3.60043	1.34972E-09	2.99684	0.0999922	2.85857E-09	2.99692
3.70049	1.35201E-09	3.01841	0.0999921	6.64719E-09	3.01848
3.80057	1.34538E-09	3.04005	0.0999915	1.38862E-08	3.04012
3.90033	1.34643E-09	3.06161	0.0999886	2.72358E-08	3.06168
4.00037	1.34486E-09	3.08317	0.0999855	5.03184E-08	3.08324
4.1005	1.33487E-09	3.10473	0.0999802	8.75903E-08	3.1048
4.20055	1.31614E-09	3.12638	0.0999973	1.45707E-07	3.14684
4.3006	1.14671E-09	3.16821	0.0999925	2.36697E-07	3.16828
4.4004	1.31935E-09	3.18978	0.0999937	3.58257E-07	3.18986
4.50049	1.33214E-09	3.21144	0.0999939	5.13473E-07	3.2115
4.6006	1.34269E-09	3.233	0.0999924	7.07535E-07	3.23307
4.70069	1.34474E-09	3.25457	0.099992	9.42385E-07	3.25465
4.80046	1.34619E-09	3.27614	0.0999904	1.19017E-06	3.29661
4.90051	1.12815E-09	3.31809	0.099991	1.52347E-06	3.31815
5.00059	1.33232E-09	3.33968	0.0999904	1.88966E-06	3.33975
5.10063	1.35697E-09	3.36122	0.0999898	2.29283E-06	3.3613
5.20071	1.35018E-09	3.38286	0.0999921	2.73293E-06	3.38293
5.30042	1.34963E-09	3.40442	0.09999	3.20704E-06	3.4045
5.40054	1.3429E-09	3.42604	0.0999906	3.71583E-06	3.42606
5.50056	1.33524E-09	3.44771	0.0999912	4.25471E-06	3.44777
5.60064	1.34294E-09	3.46927	0.0999913	4.82196E-06	3.46935
5.70077	1.34336E-09	3.49083	0.0999895	5.41472E-06	3.49091
5.80052	1.33995E-09	3.51238	0.09999	6.02829E-06	3.51246
5.90061	1.33702E-09	3.53404	0.0999891	6.66607E-06	3.5341
6.0007	1.34685E-09	3.55562	0.0999909	7.32372E-06	3.55569
6.10074	1.35307E-09	3.57716	0.0999909	7.9986E-06	3.57724
6.20085	1.35522E-09	3.59873	0.0999902	8.6908E-06	3.5988
6.3006	1.34532E-09	3.62039	0.0999887	9.39522E-06	3.62045
6.40064	1.35623E-09	3.64195	0.0999932	1.00894E-05	3.66221
6.5007	1.16361E-09	3.68362	0.0999963	1.08344E-05	3.68369
6.60075	1.32884E-09	3.7053	0.099996	1.15842E-05	3.70537
6.70086	1.3497E-09	3.72688	0.0999962	1.2345E-05	3.72695
6.80056	1.3464E-09	3.74842	0.0999954	1.31128E-05	3.7485
6.90066	1.34752E-09	3.76998	0.0999947	1.38934E-05	3.77005
7.00077	1.3382E-09	3.79165	0.0999963	1.46841E-05	3.79171
7.10084	1.34561E-09	3.81323	0.0999973	1.54836E-05	3.8133
7.20061	1.34624E-09	3.83479	0.099997	1.62908E-05	3.83487
7.30069	1.35584E-09	3.85635	0.0999963	1.71088E-05	3.85643
7.40072	1.34987E-09	3.87801	0.0999972	1.79351E-05	3.87807
7.50079	1.36043E-09	3.89957	0.0999972	1.87707E-05	3.89964
7.60083	1.36102E-09	3.92115	0.099995	1.96131E-05	3.92122
7.70057	1.35465E-09	3.94271	0.0999939	2.04604E-05	3.94278
7.80066	1.35136E-09	3.96436	0.0999938	2.1319E-05	3.96442
7.90069	1.35201E-09	3.98595	0.0999935	2.21843E-05	3.98602
8.00081	1.35261E-09	4.00751	0.099995	2.30583E-05	4.00758
8.10085	1.33947E-09	4.02917	0.0999942	2.3937E-05	4.02924
8.20058	1.34381E-09	4.05073	0.0999939	2.48205E-05	4.0508
8.30071	1.35146E-09	4.07226	0.0999942	2.57141E-05	4.07234
8.40079	1.35026E-09	4.09383	0.0999954	2.66129E-05	4.09391
8.50082	1.34662E-09	4.11549	0.0999951	2.75191E-05	4.11555
8.60089	1.35877E-09	4.13705	0.0999953	2.84307E-05	4.13713
8.70059	1.35851E-09	4.1586	0.0999949	2.93447E-05	4.15867
8.8007	1.3639E-09	4.18016	0.099995	3.0268E-05	4.18023
8.90076	1.35456E-09	4.20181	0.0999959	3.11969E-05	4.20188
9.00081	1.35747E-09	4.2234	0.0999963	3.21303E-05	4.22347
9.10055	1.35591E-09	4.24494	0.0999952	3.30656E-05	4.24502
9.20063	1.35477E-09	4.2665	0.0999936	3.4009E-05	4.26658
9.30071	1.34224E-09	4.28816	0.099994	3.49578E-05	4.28823
9.40074	1.34763E-09	4.30973	0.0999951	3.59121E-05	4.3098
9.50081	1.34962E-09	4.33128	0.0999939	3.68686E-05	4.33136
9.60065	1.34604E-09	4.35286	0.0999941	3.78283E-05	4.35293
9.70068	1.34536E-09	4.37451	0.0999938	3.8795E-05	4.37458
9.80078	1.35527E-09	4.39609	0.0999921	3.97639E-05	4.39616
9.90083	1.35897E-09	4.41766	0.09999	4.07362E-05	4.41773
10.0009	1.36594E-09	4.43919	0.0999886	4.17116E-05	4.43927
9.9008	-3.30985E-10	4.46085	0.0999899	4.0683E-05	4.46092
9.80071	-4.90379E-10	4.48242	0.0999891	3.96697E-05	4.4825
9.70061	-6.19435E-10	4.50399	0.0999879	3.8665E-05	4.50406
9.60059	-1.01124E-09	4.52567	0.0999891	3.76663E-05	4.52572
9.50077	-1.3137E-09	4.54723	0.0999917	3.66783E-05	4.54731
9.40068	-1.3607E-09	4.56879	0.0999921	3.56918E-05	4.56887
9.30065	-1.36623E-09	4.59035	0.0999916	3.47114E-05	4.59043
9.20056	-1.35894E-09	4.612	0.0999918	3.37385E-05	4.61207
9.10049	-1.36019E-09	4.63359	0.0999913	3.27708E-05	4.63366
9.00073	-1.35877E-09	4.65513	0.0999901	3.18121E-05	4.65521
8.90069	-1.35546E-09	4.67669	0.0999901	3.08568E-05	4.67676
8.80064	-1.34399E-09	4.69835	0.0999905	2.9908E-05	4.69841
8.70053	-1.34943E-09	4.71992	0.0999903	2.8965E-05	4.72
8.60084	-1.34715E-09	4.74147	0.0999911	2.80333E-05	4.74154
8.50078	-1.3522E-09	4.76304	0.099989	2.71031E-05	4.76311
8.40064	-1.34882E-09	4.78469	0.0999881	2.61802E-05	4.78475
8.30062	-1.3593E-09	4.80625	0.0999883	2.5265E-05	4.80632
8.2005	-1.36459E-09	4.82781	0.0999899	2.43564E-05	4.82789
8.10073	-1.36225E-09	4.84938	0.0999907	2.34585E-05	4.84945
8.00071	-1.35841E-09	4.87102	0.0999896	2.25639E-05	4.87109
7.90058	-1.36472E-09	4.89259	0.0999879	2.16772E-05	4.89266
7.80057	-1.36088E-09	4.91416	0.0999888	2.07977E-05	4.91423
7.70049	-1.35951E-09	4.93571	0.0999876	1.99264E-05	4.93578
7.60076	-1.34209E-09	4.95735	0.0999885	1.90667E-05	4.95741
7.50071	-1.34882E-09	4.97892	0.0999886	1.82123E-05	4.97899
7.40061	-1.3496E-09	5.00049	0.0999906	1.73648E-05	5.00057
7.30058	-1.33938E-09	5.02214	0.0999896	1.65274E-05	5.0222
7.2005	-1.34774E-09	5.04376	0.0999907	1.56986E-05	5.04383
7.10072	-1.35337E-09	5.06533	0.0999911	1.48815E-05	5.06541
7.00064	-1.36001E-09	5.0869	0.0999933	1.40721E-05	5.08698
6.90053	-1.36607E-09	5.10845	0.0999935	1.32725E-05	5.10852
6.80046	-1.35603E-09	5.13013	0.0999928	1.24835E-05	5.13018
6.70074	-1.35863E-09	5.15169	0.0999945	1.17074E-05	5.15176
6.60064	-1.36092E-09	5.17326	0.0999936	1.09414E-05	5.17334
6.50061	-1.35942E-09	5.1948	0.0999938	1.01873E-05	5.19488
6.40055	-1.34686E-09	5.21646	0.099986	9.45286E-06	5.23691
6.30051	-1.1158E-09	5.25834	0.0999849	8.72479E-06	5.25841
6.20077	-1.30135E-09	5.27997	0.0999863	8.01517E-06	5.28003
6.10065	-1.33483E-09	5.30161	0.0999901	7.32081E-06	5.30168
6.00061	-1.34642E-09	5.32318	0.0999905	6.64549E-06	5.32326
5.90054	-1.35193E-09	5.34474	0.0999897	5.98965E-06	5.34482
5.80044	-1.35773E-09	5.36628	0.0999904	5.35529E-06	5.36636
5.7007	-1.34746E-09	5.38795	0.0999887	4.74758E-06	5.38801
5.60058	-1.35834E-09	5.40953	0.0999907	4.16402E-06	5.40961
5.5005	-1.35897E-09	5.43111	0.0999918	3.61132E-06	5.43119
5.40046	-1.36045E-09	5.45265	0.099991	3.0912E-06	5.45273
5.30035	-1.34823E-09	5.4743	0.099992	2.60719E-06	5.47436
5.20062	-1.34594E-09	5.49587	0.0999926	2.16377E-06	5.49594
5.10058	-1.34605E-09	5.51744	0.0999906	1.75895E-06	5.51752
5.00051	-1.3363E-09	5.53911	0.0999928	1.39747E-06	5.53917
4.90044	-1.34288E-09	5.56068	0.0999914	1.08109E-06	5.56075
4.80035	-1.34913E-09	5.58223	0.0999925	8.14671E-07	5.60269
4.70061	-1.08751E-09	5.62422	0.0999923	5.87524E-07	5.62428
4.60051	-1.32415E-09	5.64579	0.0999921	4.05077E-07	5.64586
4.50043	-1.35701E-09	5.66735	0.0999911	2.64638E-07	5.66743
4.40035	-1.34877E-09	5.68891	0.0999992	1.66145E-07	5.68899
4.30066	-1.34747E-09	5.71057	0.0999843	9.60771E-08	5.77572
4.20052	-7.93064E-10	5.79715	0.099999	5.99188E-08	5.79722
4.10049	-1.20953E-09	5.81882	0.0999962	3.00855E-08	5.81888
4.00036	-1.32142E-09	5.84039	0.0999943	1.37957E-08	5.84047
3.90031	-1.33903E-09	5.86196	0.0999926	5.78154E-09	5.86203
3.80053	-1.34574E-09	5.8835	0.0999943	2.27716E-09	5.88358
3.70046	-1.34401E-09	5.90521	0.0999922	8.96382E-10	5.90527
3.60038	-1.35686E-09	5.92676	0.0999917	3.70562E-10	5.92684
3.50026	-1.36039E-09	5.94832	0.0999901	1.93059E-10	5.9484
3.40016	-1.35196E-09	5.96998	0.099989	1.28961E-10	5.97004
3.30045	-1.35422E-09	5.99154	0.0999872	9.91106E-11	5.99161
3.20034	-1.35611E-09	6.0131	0.0999893	8.1706E-11	6.01317
3.10024	-1.35115E-09	6.03467	0.0999882	6.97136E-11	6.03474
3.00012	-1.34195E-09	6.05632	0.0999885	6.06775E-11	6.05639
2.90003	-1.34382E-09	6.07789	0.0999875	5.42521E-11	6.07796
2.8003	-1.34207E-09	6.09943	0.0999882	4.86255E-11	6.09951
2.70017	-1.34585E-09	6.12099	0.0999902	4.45604E-11	6.12106
2.60012	-1.33926E-09	6.14265	0.09999	4.07457E-11	6.14271
2.50003	-1.35117E-09	6.16421	0.0999902	3.78609E-11	6.16429
2.39998	-1.35804E-09	6.18575	0.099991	3.52621E-11	6.18583
2.30023	-1.35504E-09	6.20732	0.0999906	3.25441E-11	6.2074
2.2001	-1.35176E-09	6.22898	0.0999915	3.04341E-11	6.22904
2.10001	-1.35902E-09	6.25055	0.0999882	2.84672E-11	6.25063
1.99993	-1.25865E-09	6.27281	0.0999882	2.54154E-11	6.27287
1.89993	-1.34369E-09	6.29434	0.0999876	2.53797E-11	6.29441
1.79997	-1.34095E-09	6.31595	0.0999878	2.43187E-11	6.31601
1.69998	-1.34605E-09	6.33749	0.0999897	2.36392E-11	6.33757
1.60001	-1.34665E-09	6.35902	0.0999882	2.30551E-11	6.35909
1.50001	-1.34898E-09	6.38052	0.0999884	2.22206E-11	6.38059
1.40004	-1.34404E-09	6.40211	0.0999879	2.1863E-11	6.40218
1.30004	-1.35378E-09	6.42362	0.0999888	2.1708E-11	6.4237
1.20003	-1.35747E-09	6.44515	0.0999876	2.13742E-11	6.44522
1.10006	-1.35307E-09	6.46676	0.0999863	2.08139E-11	6.46682
1.00004	-1.36323E-09	6.48827	0.0999867	2.04086E-11	6.48834
0.900065	-1.36257E-09	6.50978	0.0999873	2.01225E-11	6.50985
0.800049	-1.36182E-09	6.53129	0.099988	1.93954E-11	6.53137
0.700071	-1.35081E-09	6.5529	0.0999882	1.90854E-11	6.55296
0.600042	-1.35343E-09	6.57443	0.0999859	1.88589E-11	6.5745
0.500027	-1.35317E-09	6.59592	0.0999877	1.87397E-11	6.596
0.400035	-1.34761E-09	6.61744	0.0999865	1.85847E-11	6.61752
0.300002	-1.33921E-09	6.63906	0.0999866	1.84059E-11	6.63913
0.199985	-1.24738E-09	6.66126	0.0999855	1.77383E-11	6.66132
0.0999961	-1.34166E-09	6.68278	0.0999888	1.90616E-11	6.68285
-2.4128E-05	-1.33027E-09	6.70446	0.0999881	1.86205E-11	6.70453
-0.100034	-1.35078E-09	6.72608	0.0999878	1.88112E-11	6.72614
-0.200019	-1.36195E-09	6.7476	0.0999868	1.86563E-11	6.74768
-0.300097	-1.34487E-09	6.76977	0.0999896	1.82271E-11	6.76985
-0.400125	-1.35928E-09	6.7913	0.099987	1.78099E-11	6.79138
-0.500153	-1.34947E-09	6.81292	0.0999882	1.77622E-11	6.81299
-0.600128	-1.35494E-09	6.83443	0.0999865	1.75238E-11	6.83451
-0.700155	-1.35155E-09	6.85594	0.0999873	1.74761E-11	6.85602
-0.800167	-1.35083E-09	6.87744	0.0999855	1.78695E-11	6.87751
-0.900143	-1.34132E-09	6.89904	0.0999869	1.77979E-11	6.8991
-1.00016	-1.34869E-09	6.92056	0.0999865	1.81317E-11	6.92063
-1.10017	-1.35341E-09	6.94208	0.0999842	1.8394E-11	6.94215
-1.20014	-1.34964E-09	6.96367	0.0999848	1.84655E-11	6.96373
-1.30015	-1.35891E-09	6.9852	0.0999841	1.83582E-11	6.98527
-1.40016	-1.36417E-09	7.00669	0.0999836	1.82033E-11	7.00677
-1.50012	-1.36466E-09	7.0282	0.0999828	1.81198E-11	7.02827
-1.60012	-1.35524E-09	7.04981	0.0999819	1.77979E-11	7.04988
-1.70013	-1.3606E-09	7.07133	0.0999826	1.75118E-11	7.0714
-1.80008	-1.3597E-09	7.09281	0.0999833	1.76072E-11	7.09289
-1.90008	-1.35345E-09	7.11434	0.0999815	1.74403E-11	7.11441
-2.00007	-1.34237E-09	7.13594	0.0999803	1.76191E-11	7.136
-2.1006	-1.3152E-09	7.15857	0.099981	1.76311E-11	7.15864
-2.2007	-1.34376E-09	7.18014	0.0999801	1.8084E-11	7.18021
-2.30077	-1.34946E-09	7.2017	0.0999784	1.8239E-11	7.20178
-2.40055	-1.34127E-09	7.22337	0.09998	1.81913E-11	7.22344
-2.50063	-1.35493E-09	7.24494	0.0999795	1.84655E-11	7.24502
-2.60072	-1.36327E-09	7.26647	0.0999809	1.83105E-11	7.26655
-2.70075	-1.36021E-09	7.28804	0.0999822	1.81079E-11	7.28812
-2.80087	-1.35365E-09	7.3097	0.0999826	1.78576E-11	7.30976
-2.90065	-1.35494E-09	7.33125	0.0999812	1.75238E-11	7.33132
-3.00069	-1.34352E-09	7.35295	0.0999831	1.72019E-11	7.35301
-3.10086	-1.3505E-09	7.3745	0.099983	1.73211E-11	7.37458
-3.20091	-1.33636E-09	7.39618	0.0999795	1.70946E-11	7.39624
-3.3007	-1.33783E-09	7.41777	0.0999818	1.75834E-11	7.41784
-3.40086	-1.34437E-09	7.43934	0.0999819	1.76668E-11	7.43942
-3.50082	-1.33849E-09	7.46101	0.0999825	1.79529E-11	7.46107
-3.60096	-1.35154E-09	7.48258	0.0999819	1.80125E-11	7.48265
-3.70102	-1.35655E-09	7.50412	0.0999825	1.83821E-11	7.5042
-3.80078	-1.35485E-09	7.5257	0.09998	1.8239E-11	7.52577
-3.90085	-1.35168E-09	7.54737	0.0999811	1.80483E-11	7.54742
-4.00089	-1.36034E-09	7.56892	0.0999808	1.79887E-11	7.569
-4.101	-1.36102E-09	7.59048	0.0999811	1.75714E-11	7.59056
-4.20104	-1.3554E-09	7.61205	0.099982	1.74642E-11	7.61212
-4.30081	-1.33867E-09	7.63371	0.0999825	1.7333E-11	7.63377
-4.40093	-1.34614E-09	7.65529	0.0999828	1.72138E-11	7.65536
-4.50101	-1.34705E-09	7.67683	0.0999815	1.75476E-11	7.67691
-4.60112	-1.33832E-09	7.69844	0.0999828	1.75238E-11	7.69852
-4.70086	-1.33504E-09	7.72011	0.0999828	1.78218E-11	7.72017
-4.80093	-1.34871E-09	7.74168	0.0999835	1.78695E-11	7.74175
-4.90102	-1.35512E-09	7.76324	0.0999842	1.81317E-11	7.76332
-5.00109	-1.35723E-09	7.78481	0.0999836	1.82867E-11	7.78489
-5.10115	-1.35223E-09	7.80647	0.0999838	1.79529E-11	7.80653
-5.2009	-1.35679E-09	7.82804	0.0999822	1.78695E-11	7.82812
-5.30095	-1.35878E-09	7.84964	0.0999832	1.7333E-11	7.84972
-5.40106	-1.35978E-09	7.87118	0.0999835	1.72019E-11	7.87126
-5.50112	-1.34616E-09	7.89284	0.0999794	1.71185E-11	7.89291
-5.6012	-1.34896E-09	7.91441	0.0999803	1.72973E-11	7.91449
-5.701	-1.34296E-09	7.93598	0.0999797	1.75118E-11	7.93605
-5.80107	-1.33507E-09	7.9576	0.0999803	1.72377E-11	7.95767
-5.90115	-1.34004E-09	7.97924	0.099981	1.77741E-11	7.97931
-6.00125	-1.34803E-09	8.00081	0.0999804	1.80006E-11	8.00088
-6.10096	-1.34908E-09	8.02238	0.099979	1.82033E-11	8.02245
-6.20105	-1.35851E-09	8.04392	0.09998	1.85132E-11	8.044
-6.30112	-1.35193E-09	8.0656	0.0999809	1.78099E-11	8.06566
-6.40119	-1.36098E-09	8.08717	0.0999792	1.79529E-11	8.08724
-6.50125	-1.36112E-09	8.10873	0.0999798	1.80364E-11	8.1088
-6.60098	-1.35628E-09	8.13028	0.0999819	1.75357E-11	8.13036
-6.7011	-1.34701E-09	8.15195	0.099983	1.71185E-11	8.15201
-6.80115	-1.35107E-09	8.17351	0.0999821	1.74046E-11	8.17359
-6.9012	-1.34643E-09	8.19509	0.0999832	1.72615E-11	8.19516
-7.00132	-1.33824E-09	8.21675	0.0999808	1.73092E-11	8.21681
-7.10107	-1.34146E-09	8.23831	0.0999789	1.76191E-11	8.23839
-7.20115	-1.34778E-09	8.25987	0.0999811	1.79291E-11	8.25995
-7.30123	-1.35125E-09	8.28144	0.0999804	1.79887E-11	8.28151
-7.40129	-1.34611E-09	8.3031	0.0999797	1.81794E-11	8.30316
-7.50109	-1.35434E-09	8.32467	0.09998	1.82867E-11	8.32474
-7.60112	-1.36353E-09	8.34621	0.099978	1.80125E-11	8.34629
-7.70115	-1.36085E-09	8.36778	0.0999788	1.79291E-11	8.36786
-7.80124	-1.35235E-09	8.38944	0.0999779	1.76072E-11	8.3895
-7.90128	-1.35553E-09	8.41101	0.099979	1.72496E-11	8.41109
-8.00107	-1.35146E-09	8.43256	0.099979	1.7345E-11	8.43264
-8.10109	-1.3495E-09	8.45413	0.099978	1.72734E-11	8.45421
-8.20115	-1.33654E-09	8.4758	0.0999769	1.72853E-11	8.47586
-8.3013	-1.34557E-09	8.49738	0.0999789	1.75953E-11	8.49746
-8.40133	-1.34597E-09	8.51894	0.0999769	1.76311E-11	8.51902
-8.50112	-1.34654E-09	8.54051	0.0999764	1.77979E-11	8.54059
-8.60119	-1.34463E-09	8.56218	0.099978	1.8084E-11	8.56223
-8.70122	-1.35542E-09	8.58375	0.0999805	1.84059E-11	8.58382
-8.80133	-1.35844E-09	8.60537	0.0999811	1.82271E-11	8.60545
-8.90104	-1.35863E-09	8.62692	0.0999808	1.78218E-11	8.627
-9.00108	-1.35305E-09	8.64857	0.0999791	1.7488E-11	8.64864
-9.10119	-1.35597E-09	8.67016	0.0999806	1.74522E-11	8.67024
-9.20123	-1.35331E-09	8.69174	0.0999792	1.72853E-11	8.69181
-9.30136	-1.34058E-09	8.71336	0.0999794	1.72377E-11	8.71343
-9.40106	-1.33749E-09	8.735	0.0999789	1.73092E-11	8.73507
-9.50112	-1.34622E-09	8.75655	0.0999793	1.73807E-11	8.75663
-9.60124	-1.33805E-09	8.77818	0.0999774	1.76072E-11	8.77825
-9.70131	-1.34916E-09	8.79973	0.0999785	1.79768E-11	8.7998
-9.80136	-1.34461E-09	8.82138	0.0999769	1.80244E-11	8.82145
-9.90113	-1.35248E-09	8.84296	0.0999784	1.83105E-11	8.84303
-10.0012	-1.35989E-09	8.86452	0.0999799	1.81437E-11	8.8646
